%H field first colomn	Temp row	Cp array	Corrected for demagnetization using the Anaroni demagnetization factor	 NaN means no data	 Interpolated from 6 field measurement
0.0000		229			230			231			232			233			234			235			236			237			238			239			240			241			242			243			244			245			246			247			248			249			250			251			252			253			254			255			256			257			258			259			260			261			262			263			264			265			266			267			268			269			270			271			272			273			274			275			276			277			278			279			280			281			282			283			284			285			286			287			288			289			290			291			292			293			294			295			296			297			298			299			300			301			302			303			304			305			306			307			308			309			310			311			312			313			314			315			316			317			
 0.000		427.2850		428.3777		430.0902		432.1759		433.0203		434.4587		436.1342		436.9634		438.3334		440.4026		441.9144		444.2246		444.6781		447.1246		449.7972		450.9991		452.1516		457.3620		459.5482		460.1693		463.1030		466.0155		468.1186		469.6315		473.6264		477.3757		479.0298		484.0010		485.4262		489.7805		493.3758		498.8778		504.4792		508.3810		514.0886		519.9610		526.7805		532.3598		542.2358		550.5561		557.0095		566.1159		579.2738		590.4836		604.0293		617.3521		635.5209		652.7986		673.0332		695.5438		719.4389		747.7115		774.8100		801.2934		822.1662		834.5231		825.9884		795.6077		740.8540		671.7256		612.9862		579.6664		559.7880		545.3426		533.0281		525.8711		517.1562		508.9955		505.3012		499.2669		495.4556		491.9332		487.9210		485.8520		482.8360		480.5758		478.3260		475.4588		472.9448		473.3420		469.8623		467.7278		465.7541		465.4880		463.5244		461.9778		459.1407		458.8934		454.6727		
 0.010		427.2769		428.3953		430.1565		432.0506		432.9677		434.4120		436.0146		436.8642		438.3515		440.2960		441.8457		444.0837		444.5718		447.1087		449.6006		450.9941		452.1634		457.2432		459.3864		460.0776		462.9193		465.8338		468.0262		469.6579		473.5415		477.2362		478.8972		483.8444		485.3196		489.6880		493.3755		498.6717		504.3720		508.0641		513.8760		519.6740		526.3345		532.0543		541.6693		549.8457		556.5069		565.7557		578.6407		589.7659		603.2463		616.5859		634.4766		651.5539		671.5532		693.8777		717.3660		745.2149		772.0274		798.3196		819.1232		831.3217		823.3818		794.4154		740.9160		674.0726		616.3416		582.8806		562.3857		547.2494		534.4583		526.9983		518.0657		509.6623		505.8306		499.6963		495.7499		492.1590		488.1108		485.9695		482.9458		480.6427		478.4229		475.5958		473.0414		473.4229		469.9634		467.8265		465.9092		465.6279		463.6829		462.1488		459.3907		459.1405		455.0218		
 0.020		427.2688		428.4129		430.2228		431.9253		432.9152		434.3653		435.8950		436.7650		438.3697		440.1893		441.7771		443.9428		444.4655		447.0928		449.4041		450.9891		452.1752		457.1243		459.2246		459.9860		462.7355		465.6520		467.9337		469.6843		473.4565		477.0967		478.7646		483.6878		485.2130		489.5955		493.3751		498.4657		504.2648		507.7472		513.6635		519.3870		525.8884		531.7487		541.1027		549.1354		556.0043		565.3956		578.0077		589.0483		602.4633		615.8197		633.4323		650.3091		670.0733		692.2117		715.2930		742.7182		769.2449		795.3458		816.0802		828.1202		820.7752		793.2231		740.9781		676.4197		619.6969		586.0949		564.9834		549.1562		535.8884		528.1256		518.9753		510.3291		506.3601		500.1257		496.0442		492.3848		488.3006		486.0871		483.0555		480.7096		478.5197		475.7328		473.1380		473.5038		470.0646		467.9251		466.0644		465.7679		463.8414		462.3197		459.6406		459.3876		455.3708		
 0.030		427.2607		428.4305		430.2892		431.8000		432.8626		434.3186		435.7754		436.6658		438.3878		440.0827		441.7085		443.8019		444.3592		447.0769		449.2075		450.9841		452.1870		457.0055		459.0628		459.8943		462.5518		465.4703		467.8412		469.7108		473.3716		476.9572		478.6320		483.5312		485.1064		489.5030		493.3748		498.2596		504.1577		507.4303		513.4509		519.1000		525.4423		531.4432		540.5361		548.4250		555.5017		565.0355		577.3746		588.3306		601.6802		615.0534		632.3881		649.0643		668.5933		690.5456		713.2200		740.2216		766.4623		792.3719		813.0371		824.9187		818.1686		792.0307		741.0401		678.7667		623.0523		589.3091		567.5811		551.0629		537.3186		529.2528		519.8848		510.9959		506.8895		500.5551		496.3384		492.6106		488.4904		486.2046		483.1653		480.7765		478.6165		475.8698		473.2346		473.5848		470.1657		468.0238		466.2195		465.9078		463.9999		462.4907		459.8906		459.6347		455.7198		
 0.040		427.2426		428.4243		430.3167		431.6880		432.8422		434.2906		435.6837		436.5885		438.4566		440.0622		441.6814		443.6850		444.3263		447.1157		449.0645		450.9729		452.2069		456.9803		458.9016		459.7768		462.3681		465.2741		467.7487		469.7440		473.2895		476.8177		478.4881		483.3746		484.9998		489.4085		493.3741		498.0536		504.0505		507.1169		513.2384		518.8130		524.9962		531.1376		539.9696		547.7147		554.9991		564.6754		576.7415		587.6130		600.8972		614.2872		631.3438		647.8195		667.1134		688.8796		711.1471		737.7250		763.6797		789.3981		809.9941		821.7173		815.5620		790.8384		741.1022		681.1137		626.4077		592.5234		570.1788		552.9697		538.7488		530.3801		520.7943		511.6627		507.4189		500.9845		496.6327		492.8364		488.6801		486.3221		483.2750		480.8433		478.7134		476.0068		473.3313		473.6657		470.2669		468.1224		466.3747		466.0478		464.1584		462.6616		460.1405		459.8818		456.0688		
 0.050		427.2220		428.3897		430.3309		431.6012		432.8780		434.3000		435.6451		436.6117		438.5509		440.0993		441.6866		443.6335		444.3679		447.2049		448.9679		450.9290		452.2687		457.0582		458.7594		459.6304		462.4336		465.0507		467.5614		469.7913		473.2144		476.6572		478.2914		483.1901		484.8524		489.2784		493.3557		497.8098		503.9146		506.9819		513.0834		518.5173		524.5381		530.7817		539.3331		547.0033		554.4866		564.3153		576.1068		586.8866		600.1141		613.5210		630.2995		646.5747		665.6334		687.2135		709.0741		735.2283		760.8972		786.4243		806.9510		818.5158		812.9554		789.6461		741.1642		683.4607		629.7631		595.7377		572.7765		554.8765		540.1789		531.5074		521.7039		512.3295		507.9484		501.4139		496.9270		493.0622		488.8699		486.4396		483.3848		480.9102		478.8102		476.1438		473.4279		473.7466		470.3680		468.2211		466.5298		466.1878		464.3170		462.8326		460.3905		460.1289		456.4178		
 0.060		427.2015		428.3550		430.3452		431.5144		432.9137		434.3095		435.6065		436.6350		438.6451		440.1364		441.6919		443.5821		444.4094		447.2940		448.8712		450.8851		452.3305		457.1362		458.6172		459.4841		462.5130		464.8274		467.3650		469.8385		473.1394		476.4890		478.0947		482.9973		484.6855		489.1483		493.3372		497.5658		503.7769		506.8470		512.9928		518.2042		524.0532		530.4047		538.6695		546.2781		553.9643		563.8577		575.4683		586.0998		599.3139		612.7547		629.2798		645.3393		664.1576		685.4860		706.9830		732.7317		758.1146		783.4505		803.9080		815.3144		810.3488		788.4537		741.2263		685.8078		633.1184		598.9519		575.3743		556.7833		541.6091		532.6346		522.6134		512.9963		508.4778		501.8433		497.2213		493.2881		489.0597		486.5571		483.4946		480.9771		478.9071		476.2808		473.5245		473.8275		470.4691		468.3198		466.6850		466.3277		464.4755		463.0035		460.6404		460.3760		456.7669		
 0.070		427.1828		428.3289		430.3584		431.4422		432.9465		434.3200		435.5691		436.6583		438.7394		440.1736		441.6971		443.5306		444.4510		447.3831		448.7745		450.8412		452.3923		457.2142		458.4750		459.3377		462.5925		464.6040		467.1686		469.8857		473.0644		476.3208		477.8981		482.8045		484.5186		489.0181		493.3188		497.3217		503.6393		506.7121		512.9023		517.8911		523.5683		530.0276		538.0060		545.5529		553.4419		563.3761		574.8298		585.3130		598.5069		611.9884		628.3013		644.1413		662.6833		683.7048		704.8525		730.2678		755.3163		780.4767		800.8444		812.1231		807.7622		787.2614		741.2883		688.1548		636.4738		602.1662		577.9720		558.6901		543.0393		533.7619		523.5230		513.6631		509.0073		502.2727		497.5156		493.5139		489.2495		486.6747		483.6043		481.0440		479.0039		476.4177		473.6211		473.9085		470.5703		468.4184		466.8401		466.4677		464.6340		463.1744		460.8904		460.6232		457.1159		
 0.080		427.1703		428.3360		430.3657		431.4632		432.9505		434.3476		435.6124		436.6185		438.7168		440.1029		441.6871		443.5174		444.4432		447.3793		448.7619		450.8158		452.3975		457.2206		458.4131		459.2385		462.6262		464.4536		467.0192		469.9128		472.9935		476.1545		477.7014		482.6117		484.3518		488.8880		493.3004		497.0777		503.5017		506.5772		512.8117		517.5780		523.0834		529.6506		537.3424		544.8277		552.9195		562.8945		574.1913		584.5262		597.6999		611.2221		627.3227		642.9433		661.2089		681.9236		702.7220		727.8251		752.4856		777.3959		797.7605		808.9720		805.3243		786.0691		741.3618		690.5018		639.8292		605.3804		580.5697		560.5968		544.4694		534.8891		524.4325		514.3299		509.5367		502.7021		497.8099		493.7397		489.4393		486.7922		483.7141		481.1108		479.1008		476.5547		473.7177		473.9894		470.6714		468.5171		466.9953		466.6077		464.7925		463.3454		461.1403		460.8703		457.4649		
 0.090		427.1578		428.3431		430.3731		431.4843		432.9545		434.3752		435.6558		436.5775		438.6873		440.0208		441.6746		443.5123		444.4218		447.3427		448.7879		450.8013		452.3608		457.1623		458.4417		459.2058		462.5786		464.4693		467.0074		469.8475		472.9565		476.0487		477.6257		482.6053		484.3075		488.8251		493.2968		496.9205		503.3893		506.4744		512.7045		517.2964		522.6234		529.2735		536.6788		544.1026		552.3972		562.4129		573.5528		583.7394		596.8930		610.4558		626.3441		641.7453		659.7345		680.1425		700.5915		725.3824		749.6549		774.3114		794.6766		805.8209		802.8864		784.6511		741.8382		692.8488		643.1846		608.5790		583.1674		562.5036		545.8996		536.0164		525.3421		514.9967		510.0662		503.1315		498.1041		493.9655		489.6291		486.9097		483.8238		481.1777		479.1976		476.6917		473.8143		474.0703		470.7725		468.6157		467.1504		466.7476		464.9510		463.5163		461.3903		461.1174		457.8139		
 0.100		427.1454		428.3502		430.3805		431.5053		432.9585		434.4028		435.6992		436.5364		438.6579		439.9387		441.6622		443.5073		444.4004		447.3061		448.8139		450.7868		452.3242		457.1040		458.4704		459.1731		462.5309		464.4851		466.9955		469.7821		472.9194		475.9430		477.5564		482.6268		484.2941		488.7885		493.3017		496.8317		503.3043		506.4230		512.5508		517.1810		522.5264		529.1109		536.4392		543.7476		552.0223		562.0040		572.9811		582.9526		596.0860		609.6895		625.3656		640.5473		658.2601		678.3613		698.4611		722.9396		746.8242		771.2268		791.5927		802.6698		800.4484		783.1186		742.3145		694.8179		646.5032		611.6613		585.6690		564.4104		547.3298		537.1437		526.2516		515.6635		510.5956		503.5609		498.3984		494.1913		489.8188		487.0272		483.9336		481.2446		479.2944		476.8287		473.9109		474.1513		470.8737		468.7144		467.3056		466.8876		465.1095		463.6873		461.6403		461.3645		458.1629		
 0.110		427.1329		428.3573		430.3879		431.5264		432.9625		434.4304		435.7426		436.4954		438.6284		439.8567		441.6497		443.5022		444.3790		447.2695		448.8399		450.7723		452.2875		457.0457		458.4991		459.1404		462.4833		464.5009		466.9836		469.7168		472.8824		475.8373		477.4872		482.6484		484.2807		488.7518		493.3065		496.7429		503.2193		506.3716		512.3971		517.0656		522.4294		528.9585		536.2900		543.5805		551.8048		561.7439		572.7049		582.6888		595.6154		609.0723		624.5377		639.3948		656.7857		676.5802		696.3306		720.4969		743.9935		768.1423		788.5089		799.5187		798.0105		781.5861		742.7908		696.7012		649.7789		614.7437		588.1261		566.3330		548.7599		538.2232		527.1182		516.3236		511.1159		503.9903		498.6927		494.4171		490.0086		487.1447		484.0434		481.3115		479.3913		476.9657		474.0075		474.2322		470.9748		468.8130		467.4608		467.0276		465.2681		463.8582		461.8902		461.6116		458.5120		
 0.120		427.1204		428.3644		430.3953		431.5475		432.9665		434.4580		435.7860		436.4543		438.5990		439.7746		441.6373		443.4972		444.3576		447.2329		448.8659		450.7579		452.2508		456.9874		458.5278		459.1077		462.4356		464.5166		466.9718		469.6515		472.8454		475.7315		477.4179		482.6699		484.2673		488.7151		493.3113		496.6541		503.1343		506.3203		512.2434		516.9502		522.3324		528.8062		536.1409		543.4133		551.5873		561.4838		572.4288		582.4281		595.2374		608.5702		624.0042		638.7468		655.9164		675.2990		694.4005		718.0541		741.1628		765.0577		785.4250		796.3676		795.5726		780.0535		743.2671		698.5845		653.0547		617.8261		590.5831		568.3954		550.2590		539.2904		527.9500		516.9576		511.6088		504.3869		498.9870		494.6429		490.1886		487.2623		484.1531		481.3783		479.4881		477.0979		474.1048		474.3131		471.0706		468.9117		467.6159		467.1635		465.4499		464.0292		462.1402		461.8587		458.8610		
 0.130		427.1079		428.3715		430.4026		431.5685		432.9704		434.4856		435.8293		436.4133		438.5695		439.6926		441.6248		443.4922		444.3362		447.1964		448.8920		450.7434		452.2142		456.9291		458.5564		459.0751		462.3880		464.5324		466.9599		469.5861		472.8084		475.6258		477.3486		482.6915		484.2539		488.6784		493.3161		496.5653		503.0494		506.2689		512.0897		516.8348		522.2354		528.6538		535.9917		543.2461		551.3698		561.2237		572.1526		582.1673		594.8594		608.0681		623.4707		638.0989		655.1949		674.5435		693.5370		716.7160		738.9268		761.9732		782.3411		793.2164		793.1346		778.5210		743.7434		700.4677		656.3304		620.9085		593.0401		570.4579		551.7632		540.3576		528.7819		517.5917		512.1017		504.7805		499.2982		494.8779		490.3653		487.3981		484.3038		481.4449		479.5949		477.2286		474.2028		474.4026		471.1535		468.9982		467.7706		467.2975		465.6396		464.1934		462.3912		462.1040		459.2093		
 0.140		427.0954		428.3786		430.4100		431.5896		432.9744		434.5132		435.8727		436.3722		438.5400		439.6105		441.6124		443.4871		444.3148		447.1598		448.9180		450.7289		452.1775		456.8708		458.5851		459.0424		462.3403		464.5482		466.9480		469.5208		472.7713		475.5201		477.2794		482.7131		484.2404		488.6417		493.3209		496.4765		502.9644		506.2175		511.9360		516.7194		522.1384		528.5014		535.8425		543.0789		551.1523		560.9637		571.8764		581.9065		594.4814		607.5659		622.9372		637.4509		654.4734		673.7879		692.6735		715.6954		737.8390		760.4742		779.7670		790.0653		790.6967		776.9885		744.2198		702.3510		659.6062		623.9909		595.4971		572.5203		553.2673		541.4248		529.6137		518.2257		512.5946		505.1742		499.6192		495.1212		490.5420		487.5484		484.4774		481.5112		479.7129		477.3594		474.3008		474.5193		471.2364		469.0667		467.9212		467.4315		465.8293		464.3445		462.6564		462.3470		459.5546		
 0.150		427.0830		428.3857		430.4174		431.6106		432.9784		434.5408		435.9161		436.3312		438.5106		439.5284		441.5999		443.4821		444.2934		447.1232		448.9440		450.7144		452.1409		456.8125		458.6138		459.0097		462.2927		464.5640		466.9361		469.4555		472.7343		475.4143		477.2101		482.7346		484.2270		488.6051		493.3258		496.3877		502.8794		506.1661		511.7824		516.6040		522.0414		528.3490		535.6934		542.9118		550.9347		560.7036		571.6003		581.6457		594.1034		607.0638		622.4037		636.8030		653.7519		673.0324		691.8100		714.6748		736.7513		759.2902		778.5171		788.4119		788.4213		775.4560		744.6961		704.2343		662.8819		627.0733		597.9542		574.5828		554.7715		542.4920		530.4455		518.8597		513.0875		505.5678		499.9402		495.3644		490.7187		487.6986		484.6510		481.5776		479.8310		477.4901		474.3988		474.6359		471.3193		469.1352		468.0718		467.5655		466.0191		464.4955		462.9216		462.5899		459.9000		
 0.160		427.0705		428.3928		430.4248		431.6317		432.9824		434.5684		435.9595		436.2901		438.4811		439.4464		441.5875		443.4770		444.2720		447.0866		448.9700		450.6999		452.1042		456.7542		458.6425		458.9770		462.2450		464.5797		466.9243		469.3901		472.6973		475.3086		477.1409		482.7562		484.2136		488.5684		493.3306		496.2989		502.7944		506.1147		511.6287		516.4886		521.9444		528.1967		535.5442		542.7446		550.7172		560.4435		571.3241		581.3850		593.7254		606.5617		621.8702		636.1550		653.0304		672.2769		690.9465		713.6541		735.6635		758.1061		777.2672		787.3931		787.7072		774.2094		745.1724		706.1176		666.1577		630.1557		600.4112		576.6452		556.2757		543.5593		531.2774		519.4938		513.5805		505.9614		500.2611		495.6077		490.8954		487.8489		484.8246		481.6439		479.9490		477.6208		474.4969		474.7525		471.4022		469.2036		468.2224		467.6996		466.2088		464.6465		463.1868		462.8329		460.2454		
 0.170		427.0580		428.3999		430.4322		431.6528		432.9864		434.5960		436.0029		436.2490		438.4516		439.3643		441.5750		443.4720		444.2506		447.0501		448.9960		450.6854		452.0675		456.6959		458.6711		458.9443		462.1974		464.5955		466.9124		469.3248		472.6603		475.2028		477.0716		482.7778		484.2002		488.5317		493.3354		496.2101		502.7094		506.0633		511.4750		516.3732		521.8474		528.0443		535.3950		542.5774		550.4997		560.1835		571.0479		581.1242		593.3474		606.0595		621.3367		635.5071		652.3089		671.5213		690.0830		712.6335		734.5758		756.9221		776.0173		786.3743		786.9931		773.9985		745.7018		708.0008		669.4334		633.2381		602.8682		578.7076		557.7799		544.6265		532.1092		520.1278		514.0734		506.3551		500.5821		495.8509		491.0721		487.9991		484.9982		481.7102		480.0671		477.7515		474.5949		474.8691		471.4851		469.2721		468.3730		467.8336		466.3985		464.7975		463.4520		463.0758		460.5908		
 0.180		427.0507		428.4070		430.4395		431.6745		432.9922		434.6228		436.0463		436.2103		438.4222		439.2823		441.5626		443.4669		444.2293		447.0135		449.0221		450.6709		452.0309		456.6376		458.6998		458.9116		462.1497		464.6113		466.9005		469.2595		472.6232		475.0971		477.0023		482.7993		484.1867		488.4950		493.3402		496.1213		502.6244		506.0120		511.3213		516.2578		521.7505		527.8919		535.2459		542.4102		550.2822		559.9234		570.7718		580.8634		592.9694		605.5574		620.8032		634.8591		651.5874		670.7658		689.2194		711.6129		733.4880		755.7380		774.7673		785.3556		786.2790		773.7877		746.2969		709.4568		672.7092		636.3204		605.3252		580.7701		559.2840		545.6937		532.9411		520.7618		514.5663		506.7487		500.9031		496.0942		491.2488		488.1494		485.1718		481.7765		480.1851		477.8823		474.6929		474.9858		471.5680		469.3405		468.5236		467.9676		466.5883		464.9486		463.7172		463.3188		460.9362		
 0.190		427.0706		428.4142		430.4469		431.7039		433.0160		434.6397		436.0896		436.2049		438.4095		439.2002		441.5501		443.4619		444.2079		446.9791		449.0481		450.6576		451.9942		456.5793		458.7264		458.8790		462.1043		464.6270		466.8886		469.1941		472.5862		474.9914		476.9331		482.8209		484.1733		488.4583		493.3450		496.0325		502.5395		505.9606		511.1676		516.1424		521.6535		527.7395		535.0967		542.2431		550.0647		559.6633		570.4956		580.6027		592.5914		605.0553		620.2697		634.2112		650.8659		670.0103		688.3559		710.5923		732.4003		754.5540		773.5174		784.3368		785.5649		773.5769		746.8920		710.6016		674.6771		639.4028		607.7823		582.8325		560.7882		546.7609		533.7729		521.3958		515.0592		507.1424		501.2241		496.3374		491.4255		488.2996		485.3454		481.8428		480.3031		478.0130		474.7910		475.1024		471.6509		469.4090		468.6742		468.1016		466.7780		465.0996		463.9824		463.5617		461.2816		
 0.200		427.0904		428.4185		430.4468		431.7333		433.0398		434.6567		436.1349		436.1995		438.4092		439.1380		441.5466		443.4632		444.1776		446.9479		449.0775		450.6745		451.9605		456.5238		458.7453		458.8456		462.0683		464.6856		466.8768		469.1111		472.5461		474.8779		476.8638		482.8368		484.1476		488.4216		493.3426		495.9437		502.4555		505.9051		511.0139		516.0249		521.5565		527.5872		534.9475		542.0759		549.8472		559.4032		570.2195		580.3419		592.2134		604.5532		619.7362		633.5632		650.1444		669.2548		687.4924		709.5717		731.3126		753.3699		772.2675		783.3181		784.8509		773.3661		747.4870		711.7465		676.2775		641.2546		610.1344		584.8950		562.2924		547.8281		534.6047		522.0299		515.5521		507.5360		501.5450		496.5807		491.6022		488.4499		485.5190		481.9091		480.4212		478.1437		474.8890		475.2190		471.7338		469.4775		468.8248		468.2356		466.9678		465.2506		464.2476		463.8047		461.6270		
