%H field first colomn	Temp row	Cp array	Corrected for demagnetization using the Anaroni demagnetization factor	 NaN means no data	 Interpolated from 6 field measurement
0.0000		229			230			231			232			233			234			235			236			237			238			239			240			241			242			243			244			245			246			247			248			249			250			251			252			253			254			255			256			257			258			259			260			261			262			263			264			265			266			267			268			269			270			271			272			273			274			275			276			277			278			279			280			281			282			283			284			285			286			287			288			289			290			291			292			293			294			295			296			297			298			299			300			301			302			303			304			305			306			307			308			309			310			311			312			313			314			315			316			317			
 0.000		426.9056		429.5266		432.2068		434.7819		436.0417		437.3251		440.4924		441.7728		444.7480		447.2560		449.9187		451.4477		453.3233		458.2398		460.5170		463.2421		465.8681		472.1958		475.7251		477.9227		482.8036		488.7924		492.6467		497.5330		504.6019		509.0532		515.0990		525.1487		532.4945		542.0862		552.6129		562.3158		577.8921		591.9636		607.9614		627.1940		650.2250		675.5227		708.4659		745.4017		785.7018		831.4911		875.3572		905.1822		898.6487		842.2476		743.8484		642.0677		591.2288		565.7695		544.6420		532.5458		520.1526		512.1337		505.7423		499.5631		494.6405		489.6713		484.3132		481.5981		479.5497		476.2202		473.6046		471.4720		468.8782		467.2745		465.4115		461.7494		461.9814		460.6936		459.5383		458.4507		455.9838		455.3267		455.0813		454.0105		454.1308		454.3557		450.7180		451.5370		450.1554		448.6832		449.5209		450.0044		449.0419		447.9849		447.8071		447.8947		445.9846		
 0.010		426.8322		429.4059		431.9821		434.5728		435.8354		437.2862		440.4109		441.6141		444.5521		447.1813		449.7776		451.5100		453.3070		458.0319		460.4335		463.1857		465.8425		472.2123		475.7284		477.8852		482.8459		488.6485		492.5183		497.4620		504.3234		508.9499		515.0005		525.0113		532.0671		541.6647		552.2075		561.9070		577.3348		591.1297		607.0996		626.1753		648.8308		673.9004		706.5300		742.9863		782.5153		827.6507		871.0332		900.9633		895.8321		841.9164		746.0859		647.2173		596.0959		569.1895		547.3875		534.5807		521.5386		513.1964		506.4329		500.1862		495.1003		490.0815		484.6472		481.8997		479.7150		476.3576		473.7110		471.5356		469.0052		467.4390		465.5368		461.8532		462.0893		460.7848		459.6515		458.4748		456.0404		455.4016		455.1355		454.0816		454.1527		454.3886		450.8071		451.6722		450.2347		448.7440		449.5848		450.0914		449.1030		448.0877		447.9012		447.9693		446.0124		
 0.020		426.7589		429.2852		431.7573		434.3637		435.6292		437.2472		440.3295		441.4553		444.3563		447.1066		449.6365		451.5723		453.2908		457.8240		460.3501		463.1293		465.8170		472.2288		475.7317		477.8477		482.8882		488.5046		492.3898		497.3910		504.0450		508.8466		514.9020		524.8739		531.6397		541.2432		551.8021		561.4983		576.7774		590.2958		606.2379		625.1566		647.4366		672.2781		704.5941		740.5708		779.3288		823.8103		866.7092		896.7443		893.0155		841.5852		748.3234		652.3668		600.9630		572.6096		550.1331		536.6156		522.9246		514.2591		507.1236		500.8093		495.5601		490.4917		484.9812		482.2013		479.8802		476.4950		473.8173		471.5992		469.1321		467.6036		465.6621		461.9570		462.1971		460.8761		459.7647		458.4990		456.0969		455.4766		455.1897		454.1527		454.1746		454.4214		450.8963		451.8075		450.3139		448.8049		449.6487		450.1784		449.1642		448.1905		447.9954		448.0440		446.0402		
 0.030		426.6855		429.1646		431.5326		434.1546		435.4229		437.2083		440.2481		441.2966		444.1604		447.0320		449.4954		451.6346		453.2745		457.6161		460.2666		463.0728		465.7914		472.2454		475.7350		477.8102		482.9304		488.3606		492.2613		497.3199		503.7666		508.7434		514.8035		524.7364		531.2123		540.8217		551.3966		561.0895		576.2201		589.4619		605.3762		624.1379		646.0424		670.6558		702.6583		738.1554		776.1423		819.9699		862.3853		892.5254		890.1990		841.2541		750.5610		657.5164		605.8301		576.0297		552.8786		538.6506		524.3106		515.3217		507.8143		501.4325		496.0198		490.9019		485.3152		482.5029		480.0454		476.6324		473.9237		471.6627		469.2591		467.7682		465.7874		462.0609		462.3049		460.9673		459.8779		458.5232		456.1535		455.5516		455.2439		454.2237		454.1965		454.4543		450.9855		451.9427		450.3931		448.8657		449.7127		450.2653		449.2254		448.2933		448.0896		448.1186		446.0679		
 0.040		426.6121		429.0439		431.3078		433.9454		435.2166		437.1694		440.1666		441.1379		443.9646		446.9573		449.3543		451.6970		453.2583		457.4082		460.1831		463.0164		465.7658		472.2619		475.7382		477.7727		482.9727		488.2167		492.1329		497.2489		503.4881		508.6401		514.7050		524.5990		530.7849		540.4002		550.9912		560.6807		575.6627		588.6281		604.5145		623.1193		644.6481		669.0335		700.7224		735.7399		772.9558		816.1295		858.0613		888.3064		887.3824		840.9229		752.7985		662.6660		610.6972		579.4498		555.6242		540.6855		525.6967		516.3844		508.5049		502.0556		496.4796		491.3121		485.6492		482.8045		480.2106		476.7698		474.0301		471.7263		469.3860		467.9328		465.9127		462.1647		462.4127		461.0586		459.9911		458.5473		456.2100		455.6266		455.2981		454.2948		454.2184		454.4872		451.0747		452.0779		450.4723		448.9266		449.7766		450.3523		449.2865		448.3962		448.1838		448.1932		446.0957		
 0.050		426.5383		428.9117		431.0944		433.7419		435.0484		437.1338		440.0909		440.9886		443.7656		446.8844		449.2240		451.7593		453.2092		457.2003		460.0997		462.9599		465.7403		472.2270		475.7328		477.7352		483.0029		488.0727		492.0044		497.1779		503.2097		508.5368		514.6066		524.4616		530.3575		539.9787		550.5857		560.2719		575.1053		587.7942		603.6528		622.1006		643.2539		667.4112		698.7865		733.3245		769.7693		812.2891		853.7373		884.0875		884.5658		840.5917		755.0360		667.8156		615.5643		582.8699		558.3697		542.7204		527.0827		517.4471		509.1956		502.6787		496.9394		491.7223		485.9832		483.1061		480.3758		476.9072		474.1364		471.7898		469.5130		468.0973		466.0380		462.2685		462.5205		461.1498		460.1043		458.5715		456.2666		455.7016		455.3523		454.3659		454.2402		454.5200		451.1638		452.2131		450.5516		448.9874		449.8405		450.4393		449.3477		448.4990		448.2779		448.2678		446.1234		
 0.060		426.4630		428.7177		430.8891		433.5605		434.9082		437.1000		440.0777		440.8470		443.5156		446.8128		449.1074		451.7537		453.1211		457.0519		459.9832		462.9033		465.6733		472.1007		475.7010		477.6949		482.9329		487.9262		491.8958		497.0619		502.9410		508.3995		514.5501		524.3039		529.9359		539.5642		550.1803		559.8570		574.5480		586.9603		602.7842		621.0772		641.8597		665.7890		696.8506		730.9090		766.5828		808.4487		849.4133		879.8686		881.7493		840.2605		757.2735		672.9652		620.4315		586.2900		561.1153		544.7554		528.4687		518.5098		509.8863		503.3018		497.3992		492.1325		486.3172		483.4076		480.5410		477.0446		474.2428		471.8534		469.6399		468.2619		466.1633		462.3723		462.6283		461.2410		460.2175		458.5957		456.3231		455.7766		455.4065		454.4369		454.2621		454.5529		451.2530		452.3484		450.6308		449.0483		449.9044		450.5263		449.4088		448.6018		448.3721		448.3425		446.1512		
 0.070		426.3878		428.5236		430.6837		433.3792		434.7680		437.0662		440.0645		440.7054		443.2655		446.7413		448.9908		451.7435		453.0331		456.9107		459.8579		462.8466		465.5913		471.9744		475.6691		477.6536		482.8629		487.7779		491.7989		496.9430		502.6919		508.2349		514.4995		524.1443		529.5784		539.1970		549.7410		559.4380		573.9790		586.1958		601.8935		620.0166		640.5089		664.1750		694.7726		728.4529		763.3963		804.6083		845.0893		875.6496		878.9327		839.9294		759.5110		678.1148		625.2986		589.7100		563.8608		546.7903		529.8547		519.5724		510.5769		503.9250		497.8590		492.5427		486.6512		483.7092		480.7062		477.1819		474.3492		471.9169		469.7669		468.4265		466.2886		462.4762		462.7361		461.3323		460.3307		458.6199		456.3797		455.8516		455.4607		454.5080		454.2840		454.5858		451.3422		452.4836		450.7100		449.1091		449.9684		450.6132		449.4700		448.7046		448.4663		448.4171		446.1789		
 0.080		426.3125		428.3295		430.4784		433.1978		434.6277		437.0325		440.0513		440.5638		443.0155		446.6697		448.8743		451.7334		452.9451		456.7695		459.7327		462.7899		465.5092		471.8481		475.6372		477.6123		482.7929		487.6296		491.7020		496.8242		502.4428		508.0703		514.4488		523.9846		529.2208		538.8299		549.2976		559.0191		573.4039		585.4437		601.0028		618.9560		639.2390		662.6192		692.6547		725.9635		760.3560		800.8316		840.7654		871.4307		876.1161		839.5982		761.7485		683.2644		630.1657		593.1301		566.6064		548.8252		531.2407		520.6351		511.2676		504.5481		498.3188		492.9530		486.9851		484.0108		480.8714		477.3193		474.4555		471.9805		469.8938		468.5910		466.4139		462.5800		462.8439		461.4235		460.4439		458.6440		456.4362		455.9266		455.5149		454.5790		454.3059		454.6186		451.4314		452.6188		450.7892		449.1700		450.0323		450.7002		449.5311		448.8074		448.5604		448.4917		446.2067		
 0.090		426.2376		428.1354		430.2731		433.0165		434.4875		436.9987		440.0381		440.4222		442.7654		446.5982		448.7577		451.7232		452.8570		456.6283		459.6074		462.7332		465.4272		471.7218		475.6054		477.5710		482.7228		487.4813		491.6051		496.7054		502.1937		507.9057		514.3982		523.8249		528.8633		538.4627		548.8543		558.6001		572.8288		584.6915		600.1121		617.8954		637.9691		661.0634		690.5368		723.4740		757.4082		797.1844		836.6674		867.1094		873.2581		839.2670		764.0409		688.4139		635.0328		596.5502		569.3519		550.8601		532.6267		521.6978		511.9583		505.1712		498.7785		493.3632		487.3191		484.3124		481.0367		477.4567		474.5619		472.0440		470.0208		468.7556		466.5392		462.6838		462.9517		461.5148		460.5571		458.6682		456.4928		456.0016		455.5691		454.6501		454.3278		454.6515		451.5206		452.7541		450.8685		449.2309		450.0962		450.7872		449.5923		448.9102		448.6546		448.5664		446.2344		
 0.100		426.2583		428.1681		430.2892		433.0146		434.4885		436.9947		440.0345		440.3696		442.6884		446.5404		448.6891		451.6996		452.7928		456.5378		459.5165		462.6799		465.3544		471.5996		475.5735		477.5297		482.6528		487.3330		491.5081		496.5865		501.9446		507.7411		514.3476		523.6652		528.5057		538.0956		548.4109		558.1811		572.2537		583.9394		599.2214		616.8347		636.6992		659.5076		688.4189		720.9846		754.4603		793.5373		832.5802		862.7243		870.0017		838.4782		767.1704		693.5635		639.7484		599.9703		572.0975		552.8951		534.0127		522.7604		512.6489		505.7943		499.2383		493.7734		487.6531		484.6140		481.2019		477.5941		474.6682		472.1076		470.1477		468.9202		466.6645		462.7877		463.0595		461.6060		460.6703		458.6924		456.5494		456.0766		455.6233		454.7212		454.3497		454.6844		451.6097		452.8893		450.9477		449.2917		450.1601		450.8742		449.6534		449.0130		448.7488		448.6410		446.2622		
 0.110		426.2790		428.2091		430.3232		433.0362		434.5185		436.9993		440.0345		440.3619		442.7197		446.4934		448.6675		451.6596		452.7650		456.5461		459.5189		462.6410		465.3501		471.5652		475.4930		477.5123		482.5910		487.2306		491.4140		496.4610		501.7593		507.5758		514.2694		523.5033		528.1482		537.7285		547.9676		557.7622		571.6786		583.1872		598.3306		615.7741		635.4292		657.9519		686.3010		718.4952		751.5124		789.8902		828.4929		858.3392		866.7454		837.5547		770.2999		698.5681		644.3263		603.4241		574.6996		554.8181		535.3987		523.8231		513.3396		506.4174		499.6981		494.1836		487.9871		484.9156		481.3671		477.7315		474.7746		472.1711		470.2747		469.0848		466.7898		462.8915		463.1673		461.6973		460.7835		458.7165		456.6059		456.1515		455.6775		454.7922		454.3715		454.7172		451.6989		453.0245		451.0269		449.3526		450.2240		450.9611		449.7146		449.1158		448.8430		448.7156		446.2899		
 0.120		426.2996		428.2500		430.3573		433.0578		434.5485		437.0039		440.0344		440.3542		442.7511		446.4464		448.6460		451.6196		452.7373		456.5544		459.5213		462.6021		465.3458		471.5307		475.4109		477.4981		482.5313		487.1477		491.3216		496.3295		501.6643		507.4091		514.0611		523.2986		527.9525		537.4472		547.6219		557.3860		571.1628		582.4528		597.4399		614.7135		634.1593		656.3961		684.1831		716.0057		748.5645		786.2430		824.4057		853.9542		863.4891		836.6312		773.4294		703.5430		648.9041		607.1000		577.2828		556.7040		536.8140		524.8532		514.0303		506.9881		500.1579		494.5663		488.3211		485.1850		481.5363		477.8689		474.8878		472.2347		470.4043		469.2493		466.9249		462.9953		463.2751		461.7885		460.8967		458.7303		456.6625		456.2265		455.7317		454.8569		454.3934		454.7492		451.7881		453.1554		451.0964		449.4134		450.2881		451.0481		449.7757		449.2163		448.9343		448.7903		446.3177		
 0.130		426.3203		428.2910		430.3913		433.0793		434.5785		437.0086		440.0344		440.3465		442.7825		446.3994		448.6244		451.5796		452.7095		456.5627		459.5236		462.5632		465.3414		471.4963		475.3289		477.4840		482.4716		487.0647		491.2292		496.1980		501.5693		507.2423		513.8528		523.0939		527.7741		537.1932		547.3418		557.0670		570.8265		582.0634		596.8697		613.9129		633.0764		654.8529		682.0652		713.5163		745.6166		782.5959		820.3185		849.5691		860.2328		835.7077		776.5588		708.5178		653.4820		610.7759		579.8661		558.5898		538.2916		525.8807		514.7738		507.5440		500.6366		494.9424		488.6535		485.4350		481.7094		478.0046		475.0123		472.2987		470.5356		469.4111		467.0691		463.1041		463.3783		461.8818		461.0099		458.7273		456.7190		456.2996		455.7859		454.9121		454.4151		454.7802		451.8773		453.2675		451.1561		449.4743		450.3531		451.1078		449.8369		449.3114		449.0192		448.8649		446.3454		
 0.140		426.3409		428.3320		430.4253		433.1009		434.6084		437.0132		440.0344		440.3388		442.8139		446.3524		448.6028		451.5395		452.6818		456.5710		459.5260		462.5243		465.3371		471.4618		475.2468		477.4699		482.4119		486.9817		491.1367		496.0665		501.4743		507.0755		513.6444		522.8892		527.5957		536.9391		547.0616		556.7479		570.4901		581.6740		596.3654		613.2904		632.3859		654.0300		680.7321		711.4548		742.6687		778.9487		816.2312		845.1841		856.9764		834.7842		779.6883		713.4927		658.0598		614.4518		582.4494		560.4757		539.7692		526.9082		515.5386		508.0999		501.1366		495.3185		488.9844		485.6851		481.8825		478.1284		475.1367		472.3760		470.6669		469.5691		467.2133		463.2203		463.4529		461.9796		461.1320		458.7242		456.7730		456.3604		455.8732		454.9673		454.4362		454.8111		451.9502		453.3795		451.2158		449.5714		450.4181		451.1669		449.8633		449.4065		449.1041		448.9597		446.3401		
 0.150		426.3616		428.3729		430.4594		433.1225		434.6384		437.0178		440.0344		440.3310		442.8452		446.3054		448.5813		451.4995		452.6540		456.5793		459.5283		462.4853		465.3328		471.4273		475.1648		477.4557		482.3522		486.8987		491.0443		495.9350		501.3792		506.9087		513.4361		522.6845		527.4172		536.6851		546.7815		556.4289		570.1538		581.2845		595.8611		612.6679		631.6954		653.2072		679.7638		710.2719		741.1239		776.0601		812.1440		840.7990		853.7201		833.8607		782.8178		718.4675		662.6377		618.1276		585.0326		562.3615		541.2467		527.9356		516.3034		508.6558		501.6366		495.6946		489.3153		485.9352		482.0556		478.2521		475.2612		472.4533		470.7982		469.7272		467.3574		463.3365		463.5276		462.0774		461.2543		458.7212		456.8266		456.4211		455.9650		455.0226		454.4573		454.8421		452.0201		453.4915		451.2755		449.6733		450.4830		451.2260		449.8865		449.5016		449.1890		449.0568		446.3325		
 0.160		426.3823		428.4139		430.4934		433.1440		434.6684		437.0224		440.0344		440.3233		442.8766		446.2584		448.5597		451.4595		452.6263		456.5875		459.5307		462.4464		465.3284		471.3929		475.0828		477.4416		482.2926		486.8157		490.9519		495.8035		501.2842		506.7419		513.2278		522.4799		527.2388		536.4311		546.5014		556.1098		569.8175		580.8951		595.3568		612.0455		631.0049		652.3843		678.7954		709.0890		739.7327		774.5109		809.8878		836.8163		850.4638		832.9372		785.9473		723.4424		667.2156		621.8035		587.6159		564.2474		542.7243		528.9631		517.0682		509.2117		502.1366		496.0707		489.6462		486.1853		482.2287		478.3759		475.3857		472.5307		470.9295		469.8852		467.5016		463.4527		463.6022		462.1751		461.3767		458.7181		456.8802		456.4819		456.0568		455.0778		454.4783		454.8730		452.0900		453.6035		451.3352		449.7753		450.5480		451.2852		449.9097		449.5967		449.2739		449.1539		446.3249		
 0.170		426.4029		428.4549		430.5274		433.1656		434.6984		437.0271		440.0344		440.3156		442.9080		446.2114		448.5381		451.4195		452.5985		456.5958		459.5330		462.4075		465.3241		471.3584		475.0007		477.4274		482.2329		486.7327		490.8595		495.6720		501.1892		506.5752		513.0195		522.2752		527.0603		536.1771		546.2213		555.7907		569.4811		580.5056		594.8525		611.4230		630.3144		651.5614		677.8271		707.9061		738.3415		772.9616		808.1305		835.1491		847.8434		832.0136		789.0768		728.4172		671.7934		625.4794		590.1991		566.1333		544.2019		529.9905		517.8331		509.7675		502.6366		496.4469		489.9771		486.4354		482.4018		478.4996		475.5101		472.6080		471.0608		470.0433		467.6458		463.5689		463.6769		462.2729		461.4990		458.7151		456.9338		456.5426		456.1486		455.1330		454.4994		454.9039		452.1599		453.7156		451.3949		449.8772		450.6130		451.3443		449.9329		449.6918		449.3588		449.2510		446.3174		
 0.180		426.4236		428.4958		430.5615		433.1872		434.7283		437.0317		440.0343		440.3079		442.9394		446.1644		448.5166		451.3794		452.5707		456.6041		459.5354		462.3686		465.3198		471.3240		474.9187		477.4133		482.1732		486.6497		490.7670		495.5405		501.0942		506.4084		512.8111		522.0705		526.8819		535.9231		545.9411		555.4717		569.1448		580.1162		594.3482		610.8005		629.6239		650.7386		676.8587		706.7232		736.9503		771.4124		806.3733		833.4820		846.4752		831.2952		792.2063		733.3921		676.3713		629.1552		592.7824		568.0191		545.6794		531.0180		518.5979		510.3234		503.1366		496.8230		490.3080		486.6855		482.5749		478.6234		475.6346		472.6853		471.1921		470.2014		467.7899		463.6851		463.7515		462.3707		461.6214		458.7120		456.9874		456.6033		456.2404		455.1882		454.5205		454.9349		452.2298		453.8276		451.4546		449.9792		450.6780		451.4034		449.9561		449.7869		449.4437		449.3481		446.3098		
 0.190		426.4442		428.5368		430.5955		433.2087		434.7583		437.0363		440.0343		440.3002		442.9708		446.1174		448.4950		451.3394		452.5430		456.6124		459.5378		462.3297		465.3154		471.2895		474.8366		477.3991		482.1135		486.5667		490.6746		495.4090		500.9992		506.2416		512.6028		521.8658		526.7035		535.6691		545.6610		555.1526		568.8084		579.7268		593.8439		610.1780		628.9334		649.9157		675.8904		705.5402		735.5591		769.8631		804.6160		831.8149		845.1071		830.8285		793.8600		738.3670		680.9491		632.8311		595.3657		569.9050		547.1570		532.0455		519.3627		510.8793		503.6366		497.1991		490.6389		486.9355		482.7480		478.7472		475.7591		472.7626		471.3234		470.3594		467.9341		463.8012		463.8262		462.4685		461.7437		458.7090		457.0410		456.6641		456.3322		455.2434		454.5415		454.9658		452.2996		453.9396		451.5143		450.0811		450.7430		451.4626		449.9793		449.8820		449.5286		449.4452		446.3022		
 0.200		426.4649		428.5778		430.6295		433.2303		434.7883		437.0410		440.0343		440.2925		443.0021		446.0704		448.4735		451.2994		452.5152		456.6207		459.5401		462.2908		465.3111		471.2551		474.7546		477.3850		482.0538		486.4837		490.5822		495.2774		500.9041		506.0748		512.3945		521.6611		526.5250		535.4150		545.3809		554.8336		568.4721		579.3373		593.3396		609.5555		628.2430		649.0929		674.9221		704.3573		734.1679		768.3139		802.8587		830.1477		843.7390		830.3619		794.4965		740.8855		685.5270		636.5070		597.9489		571.7908		548.6346		533.0729		520.1276		511.4352		504.1365		497.5752		490.9698		487.1856		482.9211		478.8709		475.8835		472.8400		471.4547		470.5175		468.0782		463.9174		463.9008		462.5663		461.8661		458.7059		457.0946		456.7248		456.4240		455.2986		454.5626		454.9967		452.3695		454.0517		451.5740		450.1831		450.8080		451.5217		450.0026		449.9771		449.6135		449.5423		446.2946		
