Data from https://doi.org/10.1016/j.apmt.2021.101023
Upon cooling
Temperature(K)	Heat capacity(J/kg/K)

220.02	844.82
220.03	844.87
220.04	844.92
220.05	844.97
220.06	845.01
220.07	845.06
220.08	845.11
220.09	845.16
220.1	845.21
220.11	845.26
220.12	845.3
220.13	845.35
220.14	845.4
220.15	845.45
220.16	845.5
220.17	845.55
220.18	845.59
220.19	845.64
220.2	845.69
220.21	845.74
220.22	845.79
220.23	845.83
220.24	845.88
220.25	845.93
220.26	845.98
220.27	846.03
220.28	846.08
220.29	846.12
220.3	846.17
220.31	846.22
220.32	846.27
220.33	846.32
220.34	846.37
220.35	846.41
220.36	846.46
220.37	846.51
220.38	846.56
220.39	846.61
220.4	846.65
220.41	846.7
220.42	846.75
220.43	846.8
220.44	846.85
220.45	846.9
220.46	846.94
220.47	846.99
220.48	847.04
220.49	847.09
220.5	847.14
220.51	847.18
220.52	847.23
220.53	847.28
220.54	847.33
220.55	847.38
220.56	847.43
220.57	847.47
220.58	847.52
220.59	847.57
220.6	847.62
220.61	847.67
220.62	847.72
220.63	847.76
220.64	847.81
220.65	847.86
220.66	847.91
220.67	847.96
220.68	848
220.69	848.05
220.7	848.1
220.71	848.15
220.72	848.2
220.73	848.25
220.74	848.29
220.75	848.34
220.76	848.39
220.77	848.44
220.78	848.49
220.79	848.54
220.8	848.58
220.81	848.63
220.82	848.68
220.83	848.73
220.84	848.78
220.85	848.82
220.86	848.87
220.87	848.92
220.88	848.97
220.89	849.02
220.9	849.07
220.91	849.11
220.92	849.16
220.93	849.21
220.94	849.26
220.95	849.31
220.96	849.36
220.97	849.4
220.98	849.45
220.99	849.5
221	849.55
221.01	849.6
221.02	849.64
221.03	849.69
221.04	849.74
221.05	849.79
221.06	849.84
221.07	849.89
221.08	849.93
221.09	849.98
221.1	850.03
221.11	850.08
221.12	850.13
221.13	850.17
221.14	850.22
221.15	850.27
221.16	850.32
221.17	850.37
221.18	850.42
221.19	850.46
221.2	850.51
221.21	850.56
221.22	850.61
221.23	850.66
221.24	850.71
221.25	850.75
221.26	850.8
221.27	850.85
221.28	850.9
221.29	850.95
221.3	850.99
221.31	851.04
221.32	851.09
221.33	851.14
221.34	851.19
221.35	851.24
221.36	851.28
221.37	851.33
221.38	851.38
221.39	851.43
221.4	851.48
221.41	851.53
221.42	851.57
221.43	851.62
221.44	851.67
221.45	851.72
221.46	851.77
221.47	851.81
221.48	851.86
221.49	851.91
221.5	851.96
221.51	852.01
221.52	852.06
221.53	852.1
221.54	852.15
221.55	852.2
221.56	852.25
221.57	852.3
221.58	852.35
221.59	852.39
221.6	852.44
221.61	852.49
221.62	852.54
221.63	852.59
221.64	852.63
221.65	852.68
221.66	852.73
221.67	852.78
221.68	852.83
221.69	852.88
221.7	852.92
221.71	852.97
221.72	853.02
221.73	853.07
221.74	853.12
221.75	853.17
221.76	853.21
221.77	853.26
221.78	853.31
221.79	853.36
221.8	853.41
221.81	853.45
221.82	853.5
221.83	853.55
221.84	853.6
221.85	853.65
221.86	853.7
221.87	853.74
221.88	853.79
221.89	853.84
221.9	853.89
221.91	853.94
221.92	853.98
221.93	854.03
221.94	854.08
221.95	854.13
221.96	854.18
221.97	854.23
221.98	854.27
221.99	854.32
222	854.37
222.01	854.42
222.02	854.47
222.03	854.52
222.04	854.56
222.05	854.61
222.06	854.66
222.07	854.71
222.08	854.76
222.09	854.8
222.1	854.85
222.11	854.9
222.12	854.95
222.13	855
222.14	855.05
222.15	855.09
222.16	855.14
222.17	855.19
222.18	855.24
222.19	855.29
222.2	855.34
222.21	855.38
222.22	855.43
222.23	855.48
222.24	855.53
222.25	855.58
222.26	855.62
222.27	855.67
222.28	855.72
222.29	855.77
222.3	855.82
222.31	855.87
222.32	855.91
222.33	855.96
222.34	856.01
222.35	856.06
222.36	856.11
222.37	856.16
222.38	856.2
222.39	856.25
222.4	856.3
222.41	856.35
222.42	856.4
222.43	856.44
222.44	856.49
222.45	856.54
222.46	856.59
222.47	856.64
222.48	856.69
222.49	856.73
222.5	856.78
222.51	856.83
222.52	856.88
222.53	856.93
222.54	856.97
222.55	857.02
222.56	857.07
222.57	857.12
222.58	857.17
222.59	857.22
222.6	857.26
222.61	857.31
222.62	857.36
222.63	857.41
222.64	857.46
222.65	857.51
222.66	857.55
222.67	857.6
222.68	857.65
222.69	857.7
222.7	857.75
222.71	857.79
222.72	857.84
222.73	857.89
222.74	857.94
222.75	857.99
222.76	858.04
222.77	858.08
222.78	858.13
222.79	858.18
222.8	858.23
222.81	858.28
222.82	858.33
222.83	858.37
222.84	858.42
222.85	858.47
222.86	858.52
222.87	858.57
222.88	858.61
222.89	858.66
222.9	858.71
222.91	858.76
222.92	858.81
222.93	858.86
222.94	858.9
222.95	858.95
222.96	859
222.97	859.05
222.98	859.1
222.99	859.15
223	859.19
223.01	859.24
223.02	859.29
223.03	859.34
223.04	859.39
223.05	859.43
223.06	859.48
223.07	859.53
223.08	859.58
223.09	859.63
223.1	859.68
223.11	859.72
223.12	859.77
223.13	859.82
223.14	859.87
223.15	859.92
223.16	859.97
223.17	860.01
223.18	860.06
223.19	860.11
223.2	860.16
223.21	860.21
223.22	860.25
223.23	860.3
223.24	860.35
223.25	860.4
223.26	860.45
223.27	860.5
223.28	860.54
223.29	860.59
223.3	860.64
223.31	860.69
223.32	860.74
223.33	860.78
223.34	860.83
223.35	860.88
223.36	860.93
223.37	860.98
223.38	861.03
223.39	861.07
223.4	861.12
223.41	861.17
223.42	861.22
223.43	861.27
223.44	861.32
223.45	861.36
223.46	861.41
223.47	861.46
223.48	861.51
223.49	861.56
223.5	861.6
223.51	861.65
223.52	861.7
223.53	861.75
223.54	861.8
223.55	861.85
223.56	861.89
223.57	861.94
223.58	861.99
223.59	862.04
223.6	862.09
223.61	862.14
223.62	862.18
223.63	862.23
223.64	862.28
223.65	862.33
223.66	862.38
223.67	862.42
223.68	862.47
223.69	862.52
223.7	862.57
223.71	862.62
223.72	862.67
223.73	862.71
223.74	862.76
223.75	862.81
223.76	862.86
223.77	862.91
223.78	862.96
223.79	863
223.8	863.05
223.81	863.1
223.82	863.15
223.83	863.2
223.84	863.24
223.85	863.29
223.86	863.34
223.87	863.39
223.88	863.44
223.89	863.49
223.9	863.53
223.91	863.58
223.92	863.63
223.93	863.68
223.94	863.73
223.95	863.77
223.96	863.82
223.97	863.87
223.98	863.92
223.99	863.97
224	864.02
224.01	864.06
224.02	864.11
224.03	864.16
224.04	864.21
224.05	864.26
224.06	864.31
224.07	864.35
224.08	864.4
224.09	864.45
224.1	864.5
224.11	864.55
224.12	864.59
224.13	864.64
224.14	864.69
224.15	864.74
224.16	864.79
224.17	864.84
224.18	864.88
224.19	864.93
224.2	864.98
224.21	865.03
224.22	865.08
224.23	865.13
224.24	865.17
224.25	865.22
224.26	865.27
224.27	865.32
224.28	865.37
224.29	865.41
224.3	865.46
224.31	865.51
224.32	865.56
224.33	865.61
224.34	865.66
224.35	865.7
224.36	865.75
224.37	865.8
224.38	865.85
224.39	865.9
224.4	865.95
224.41	865.99
224.42	866.04
224.43	866.09
224.44	866.14
224.45	866.19
224.46	866.23
224.47	866.28
224.48	866.33
224.49	866.38
224.5	866.43
224.51	866.48
224.52	866.52
224.53	866.57
224.54	866.62
224.55	866.67
224.56	866.72
224.57	866.77
224.58	866.81
224.59	866.86
224.6	866.91
224.61	866.96
224.62	867.01
224.63	867.05
224.64	867.1
224.65	867.15
224.66	867.2
224.67	867.25
224.68	867.3
224.69	867.34
224.7	867.39
224.71	867.44
224.72	867.49
224.73	867.54
224.74	867.58
224.75	867.63
224.76	867.68
224.77	867.73
224.78	867.78
224.79	867.83
224.8	867.87
224.81	867.92
224.82	867.97
224.83	868.02
224.84	868.07
224.85	868.12
224.86	868.16
224.87	868.21
224.88	868.26
224.89	868.31
224.9	868.36
224.91	868.4
224.92	868.45
224.93	868.5
224.94	868.55
224.95	868.6
224.96	868.65
224.97	868.69
224.98	868.74
224.99	868.79
225	868.84
225.01	868.89
225.02	868.94
225.03	868.98
225.04	869.03
225.05	869.08
225.06	869.13
225.07	869.18
225.08	869.22
225.09	869.27
225.1	869.32
225.11	869.37
225.12	869.42
225.13	869.47
225.14	869.51
225.15	869.56
225.16	869.61
225.17	869.66
225.18	869.71
225.19	869.76
225.2	869.8
225.21	869.85
225.22	869.9
225.23	869.95
225.24	870
225.25	870.04
225.26	870.09
225.27	870.14
225.28	870.19
225.29	870.24
225.3	870.29
225.31	870.33
225.32	870.38
225.33	870.43
225.34	870.48
225.35	870.53
225.36	870.57
225.37	870.62
225.38	870.67
225.39	870.72
225.4	870.77
225.41	870.82
225.42	870.86
225.43	870.91
225.44	870.96
225.45	871.01
225.46	871.06
225.47	871.11
225.48	871.15
225.49	871.2
225.5	871.25
225.51	871.3
225.52	871.35
225.53	871.39
225.54	871.44
225.55	871.49
225.56	871.54
225.57	871.59
225.58	871.64
225.59	871.68
225.6	871.73
225.61	871.78
225.62	871.83
225.63	871.88
225.64	871.93
225.65	871.97
225.66	872.02
225.67	872.07
225.68	872.12
225.69	872.17
225.7	872.21
225.71	872.26
225.72	872.31
225.73	872.36
225.74	872.41
225.75	872.46
225.76	872.5
225.77	872.55
225.78	872.6
225.79	872.65
225.8	872.7
225.81	872.75
225.82	872.79
225.83	872.84
225.84	872.89
225.85	872.94
225.86	872.99
225.87	873.03
225.88	873.08
225.89	873.13
225.9	873.18
225.91	873.23
225.92	873.28
225.93	873.32
225.94	873.37
225.95	873.42
225.96	873.47
225.97	873.52
225.98	873.57
225.99	873.61
226	873.66
226.01	873.71
226.02	873.76
226.03	873.81
226.04	873.85
226.05	873.9
226.06	873.95
226.07	874
226.08	874.05
226.09	874.1
226.1	874.14
226.11	874.19
226.12	874.24
226.13	874.29
226.14	874.34
226.15	874.38
226.16	874.43
226.17	874.48
226.18	874.53
226.19	874.58
226.2	874.63
226.21	874.67
226.22	874.72
226.23	874.77
226.24	874.82
226.25	874.87
226.26	874.92
226.27	874.96
226.28	875.01
226.29	875.06
226.3	875.11
226.31	875.16
226.32	875.2
226.33	875.25
226.34	875.3
226.35	875.35
226.36	875.4
226.37	875.45
226.38	875.49
226.39	875.54
226.4	875.59
226.41	875.64
226.42	875.69
226.43	875.74
226.44	875.78
226.45	875.83
226.46	875.88
226.47	875.93
226.48	875.98
226.49	876.02
226.5	876.07
226.51	876.12
226.52	876.17
226.53	876.22
226.54	876.27
226.55	876.31
226.56	876.36
226.57	876.41
226.58	876.46
226.59	876.51
226.6	876.56
226.61	876.6
226.62	876.65
226.63	876.7
226.64	876.75
226.65	876.8
226.66	876.84
226.67	876.89
226.68	876.94
226.69	876.99
226.7	877.04
226.71	877.09
226.72	877.13
226.73	877.18
226.74	877.23
226.75	877.28
226.76	877.33
226.77	877.37
226.78	877.42
226.79	877.47
226.8	877.52
226.81	877.57
226.82	877.62
226.83	877.66
226.84	877.71
226.85	877.76
226.86	877.81
226.87	877.86
226.88	877.91
226.89	877.95
226.9	878
226.91	878.05
226.92	878.1
226.93	878.15
226.94	878.19
226.95	878.24
226.96	878.29
226.97	878.34
226.98	878.39
226.99	878.44
227	878.48
227.01	878.53
227.02	878.58
227.03	878.63
227.04	878.68
227.05	878.73
227.06	878.77
227.07	878.82
227.08	878.87
227.09	878.92
227.1	878.97
227.11	879.01
227.12	879.06
227.13	879.11
227.14	879.16
227.15	879.21
227.16	879.26
227.17	879.3
227.18	879.35
227.19	879.4
227.2	879.45
227.21	879.5
227.22	879.55
227.23	879.59
227.24	879.64
227.25	879.69
227.26	879.74
227.27	879.79
227.28	879.83
227.29	879.88
227.3	879.93
227.31	879.98
227.32	880.03
227.33	880.08
227.34	880.12
227.35	880.17
227.36	880.22
227.37	880.27
227.38	880.32
227.39	880.36
227.4	880.41
227.41	880.46
227.42	880.51
227.43	880.56
227.44	880.61
227.45	880.65
227.46	880.7
227.47	880.75
227.48	880.8
227.49	880.85
227.5	880.9
227.51	880.94
227.52	880.99
227.53	881.04
227.54	881.09
227.55	881.14
227.56	881.18
227.57	881.23
227.58	881.28
227.59	881.33
227.6	881.38
227.61	881.43
227.62	881.47
227.63	881.52
227.64	881.57
227.65	881.62
227.66	881.67
227.67	881.72
227.68	881.76
227.69	881.81
227.7	881.86
227.71	881.91
227.72	881.96
227.73	882
227.74	882.05
227.75	882.1
227.76	882.15
227.77	882.2
227.78	882.25
227.79	882.29
227.8	882.34
227.81	882.39
227.82	882.44
227.83	882.49
227.84	882.54
227.85	882.58
227.86	882.63
227.87	882.68
227.88	882.73
227.89	882.78
227.9	882.82
227.91	882.87
227.92	882.92
227.93	882.97
227.94	883.02
227.95	883.07
227.96	883.11
227.97	883.16
227.98	883.21
227.99	883.26
228	883.31
228.01	883.36
228.02	883.4
228.03	883.45
228.04	883.5
228.05	883.55
228.06	883.6
228.07	883.64
228.08	883.69
228.09	883.74
228.1	883.79
228.11	883.84
228.12	883.89
228.13	883.93
228.14	883.98
228.15	884.03
228.16	884.08
228.17	884.13
228.18	884.17
228.19	884.22
228.2	884.27
228.21	884.32
228.22	884.37
228.23	884.42
228.24	884.46
228.25	884.51
228.26	884.56
228.27	884.61
228.28	884.66
228.29	884.71
228.3	884.75
228.31	884.8
228.32	884.85
228.33	884.9
228.34	884.95
228.35	884.99
228.36	885.04
228.37	885.09
228.38	885.14
228.39	885.19
228.4	885.24
228.41	885.28
228.42	885.33
228.43	885.38
228.44	885.43
228.45	885.48
228.46	885.53
228.47	885.57
228.48	885.62
228.49	885.67
228.5	885.72
228.51	885.77
228.52	885.81
228.53	885.86
228.54	885.91
228.55	885.96
228.56	886.01
228.57	886.06
228.58	886.1
228.59	886.15
228.6	886.2
228.61	886.25
228.62	886.3
228.63	886.35
228.64	886.39
228.65	886.44
228.66	886.49
228.67	886.54
228.68	886.59
228.69	886.63
228.7	886.68
228.71	886.73
228.72	886.78
228.73	886.83
228.74	886.88
228.75	886.92
228.76	886.97
228.77	887.02
228.78	887.07
228.79	887.12
228.8	887.16
228.81	887.21
228.82	887.26
228.83	887.31
228.84	887.36
228.85	887.41
228.86	887.45
228.87	887.5
228.88	887.55
228.89	887.6
228.9	887.65
228.91	887.7
228.92	887.74
228.93	887.79
228.94	887.84
228.95	887.89
228.96	887.94
228.97	887.98
228.98	888.03
228.99	888.08
229	888.13
229.01	888.18
229.02	888.23
229.03	888.27
229.04	888.32
229.05	888.37
229.06	888.42
229.07	888.47
229.08	888.52
229.09	888.56
229.1	888.61
229.11	888.66
229.12	888.71
229.13	888.76
229.14	888.8
229.15	888.85
229.16	888.9
229.17	888.95
229.18	889
229.19	889.05
229.2	889.09
229.21	889.14
229.22	889.19
229.23	889.24
229.24	889.29
229.25	889.34
229.26	889.38
229.27	889.43
229.28	889.48
229.29	889.53
229.3	889.58
229.31	889.62
229.32	889.67
229.33	889.72
229.34	889.77
229.35	889.82
229.36	889.87
229.37	889.91
229.38	889.96
229.39	890.01
229.4	890.06
229.41	890.11
229.42	890.16
229.43	890.2
229.44	890.25
229.45	890.3
229.46	890.35
229.47	890.4
229.48	890.44
229.49	890.49
229.5	890.54
229.51	890.59
229.52	890.64
229.53	890.69
229.54	890.73
229.55	890.78
229.56	890.83
229.57	890.88
229.58	890.93
229.59	890.97
229.6	891.02
229.61	891.07
229.62	891.12
229.63	891.17
229.64	891.22
229.65	891.26
229.66	891.31
229.67	891.36
229.68	891.41
229.69	891.46
229.7	891.51
229.71	891.55
229.72	891.6
229.73	891.65
229.74	891.7
229.75	891.75
229.76	891.79
229.77	891.84
229.78	891.89
229.79	891.94
229.8	891.99
229.81	892.04
229.82	892.08
229.83	892.13
229.84	892.18
229.85	892.23
229.86	892.28
229.87	892.33
229.88	892.37
229.89	892.42
229.9	892.47
229.91	892.52
229.92	892.57
229.93	892.61
229.94	892.66
229.95	892.71
229.96	892.76
229.97	892.81
229.98	892.86
229.99	892.9
230	892.95
230.01	893
230.02	893.05
230.03	893.1
230.04	893.15
230.05	893.19
230.06	893.24
230.07	893.29
230.08	893.34
230.09	893.39
230.1	893.43
230.11	893.48
230.12	893.53
230.13	893.58
230.14	893.63
230.15	893.68
230.16	893.72
230.17	893.77
230.18	893.82
230.19	893.87
230.2	893.92
230.21	893.96
230.22	894.01
230.23	894.06
230.24	894.11
230.25	894.16
230.26	894.21
230.27	894.25
230.28	894.3
230.29	894.35
230.3	894.4
230.31	894.45
230.32	894.5
230.33	894.54
230.34	894.59
230.35	894.64
230.36	894.69
230.37	894.74
230.38	894.78
230.39	894.83
230.4	894.88
230.41	894.93
230.42	894.98
230.43	895.03
230.44	895.07
230.45	895.12
230.46	895.17
230.47	895.22
230.48	895.27
230.49	895.32
230.5	895.36
230.51	895.41
230.52	895.46
230.53	895.51
230.54	895.56
230.55	895.6
230.56	895.65
230.57	895.7
230.58	895.75
230.59	895.8
230.6	895.85
230.61	895.89
230.62	895.94
230.63	895.99
230.64	896.04
230.65	896.09
230.66	896.14
230.67	896.18
230.68	896.23
230.69	896.28
230.7	896.33
230.71	896.38
230.72	896.42
230.73	896.47
230.74	896.52
230.75	896.57
230.76	896.62
230.77	896.67
230.78	896.71
230.79	896.76
230.8	896.81
230.81	896.86
230.82	896.91
230.83	896.96
230.84	897
230.85	897.05
230.86	897.1
230.87	897.15
230.88	897.2
230.89	897.24
230.9	897.29
230.91	897.34
230.92	897.39
230.93	897.44
230.94	897.49
230.95	897.53
230.96	897.58
230.97	897.63
230.98	897.68
230.99	897.73
231	897.77
231.01	897.82
231.02	897.87
231.03	897.92
231.04	897.97
231.05	898.02
231.06	898.06
231.07	898.11
231.08	898.16
231.09	898.21
231.1	898.26
231.11	898.31
231.12	898.35
231.13	898.4
231.14	898.45
231.15	898.5
231.16	898.55
231.17	898.59
231.18	898.64
231.19	898.69
231.2	898.74
231.21	898.79
231.22	898.84
231.23	898.88
231.24	898.93
231.25	898.98
231.26	899.03
231.27	899.08
231.28	899.13
231.29	899.17
231.3	899.22
231.31	899.27
231.32	899.32
231.33	899.37
231.34	899.41
231.35	899.46
231.36	899.51
231.37	899.56
231.38	899.61
231.39	899.66
231.4	899.7
231.41	899.75
231.42	899.8
231.43	899.85
231.44	899.9
231.45	899.95
231.46	899.99
231.47	900.04
231.48	900.09
231.49	900.14
231.5	900.19
231.51	900.23
231.52	900.28
231.53	900.33
231.54	900.38
231.55	900.43
231.56	900.48
231.57	900.52
231.58	900.57
231.59	900.62
231.6	900.67
231.61	900.72
231.62	900.76
231.63	900.81
231.64	900.86
231.65	900.91
231.66	900.96
231.67	901.01
231.68	901.05
231.69	901.1
231.7	901.15
231.71	901.2
231.72	901.25
231.73	901.3
231.74	901.34
231.75	901.39
231.76	901.44
231.77	901.49
231.78	901.54
231.79	901.58
231.8	901.63
231.81	901.68
231.82	901.73
231.83	901.78
231.84	901.83
231.85	901.87
231.86	901.92
231.87	901.97
231.88	902.02
231.89	902.07
231.9	902.12
231.91	902.16
231.92	902.21
231.93	902.26
231.94	902.31
231.95	902.36
231.96	902.4
231.97	902.45
231.98	902.5
231.99	902.55
232	902.6
232.01	902.65
232.02	902.69
232.03	902.74
232.04	902.79
232.05	902.84
232.06	902.89
232.07	902.94
232.08	902.98
232.09	903.03
232.1	903.08
232.11	903.13
232.12	903.18
232.13	903.22
232.14	903.27
232.15	903.32
232.16	903.37
232.17	903.42
232.18	903.47
232.19	903.51
232.2	903.56
232.21	903.61
232.22	903.66
232.23	903.71
232.24	903.76
232.25	903.8
232.26	903.85
232.27	903.9
232.28	903.95
232.29	904
232.3	904.04
232.31	904.09
232.32	904.14
232.33	904.19
232.34	904.24
232.35	904.29
232.36	904.33
232.37	904.38
232.38	904.43
232.39	904.48
232.4	904.53
232.41	904.57
232.42	904.62
232.43	904.67
232.44	904.72
232.45	904.77
232.46	904.82
232.47	904.86
232.48	904.91
232.49	904.96
232.5	905.01
232.51	905.06
232.52	905.11
232.53	905.15
232.54	905.2
232.55	905.25
232.56	905.3
232.57	905.35
232.58	905.39
232.59	905.44
232.6	905.49
232.61	905.54
232.62	905.59
232.63	905.64
232.64	905.68
232.65	905.73
232.66	905.78
232.67	905.83
232.68	905.88
232.69	905.93
232.7	905.97
232.71	906.02
232.72	906.07
232.73	906.12
232.74	906.17
232.75	906.21
232.76	906.26
232.77	906.31
232.78	906.36
232.79	906.41
232.8	906.46
232.81	906.5
232.82	906.55
232.83	906.6
232.84	906.65
232.85	906.7
232.86	906.75
232.87	906.79
232.88	906.84
232.89	906.89
232.9	906.94
232.91	906.99
232.92	907.03
232.93	907.08
232.94	907.13
232.95	907.18
232.96	907.23
232.97	907.28
232.98	907.32
232.99	907.37
233	907.42
233.01	907.47
233.02	907.52
233.03	907.56
233.04	907.61
233.05	907.66
233.06	907.71
233.07	907.76
233.08	907.81
233.09	907.85
233.1	907.9
233.11	907.95
233.12	908
233.13	908.05
233.14	908.1
233.15	908.14
233.16	908.19
233.17	908.24
233.18	908.29
233.19	908.34
233.2	908.38
233.21	908.43
233.22	908.48
233.23	908.53
233.24	908.58
233.25	908.63
233.26	908.67
233.27	908.72
233.28	908.77
233.29	908.82
233.3	908.87
233.31	908.92
233.32	908.96
233.33	909.01
233.34	909.06
233.35	909.11
233.36	909.16
233.37	909.2
233.38	909.25
233.39	909.3
233.4	909.35
233.41	909.4
233.42	909.45
233.43	909.49
233.44	909.54
233.45	909.59
233.46	909.64
233.47	909.69
233.48	909.74
233.49	909.78
233.5	909.83
233.51	909.88
233.52	909.93
233.53	909.98
233.54	910.02
233.55	910.07
233.56	910.12
233.57	910.17
233.58	910.22
233.59	910.27
233.6	910.31
233.61	910.36
233.62	910.41
233.63	910.46
233.64	910.51
233.65	910.56
233.66	910.6
233.67	910.65
233.68	910.7
233.69	910.75
233.7	910.8
233.71	910.84
233.72	910.89
233.73	910.94
233.74	910.99
233.75	911.04
233.76	911.09
233.77	911.13
233.78	911.18
233.79	911.23
233.8	911.28
233.81	911.33
233.82	911.37
233.83	911.42
233.84	911.47
233.85	911.52
233.86	911.57
233.87	911.62
233.88	911.66
233.89	911.71
233.9	911.76
233.91	911.81
233.92	911.86
233.93	911.91
233.94	911.95
233.95	912
233.96	912.05
233.97	912.1
233.98	912.15
233.99	912.19
234	912.24
234.01	912.29
234.02	912.34
234.03	912.39
234.04	912.44
234.05	912.48
234.06	912.53
234.07	912.58
234.08	912.63
234.09	912.68
234.1	912.73
234.11	912.77
234.12	912.82
234.13	912.87
234.14	912.92
234.15	912.97
234.16	913.01
234.17	913.06
234.18	913.11
234.19	913.16
234.2	913.21
234.21	913.26
234.22	913.3
234.23	913.35
234.24	913.4
234.25	913.45
234.26	913.5
234.27	913.55
234.28	913.59
234.29	913.64
234.3	913.69
234.31	913.74
234.32	913.79
234.33	913.83
234.34	913.88
234.35	913.93
234.36	913.98
234.37	914.03
234.38	914.08
234.39	914.12
234.4	914.17
234.41	914.22
234.42	914.27
234.43	914.32
234.44	914.36
234.45	914.41
234.46	914.46
