%H field first colomn	Temp row	Cp array	Corrected for demagnetization using the Anaroni demagnetization factor	 NaN means no data	 Interpolated from 6 field measurement
0.0000		229			230			231			232			233			234			235			236			237			238			239			240			241			242			243			244			245			246			247			248			249			250			251			252			253			254			255			256			257			258			259			260			261			262			263			264			265			266			267			268			269			270			271			272			273			274			275			276			277			278			279			280			281			282			283			284			285			286			287			288			289			290			291			292			293			294			295			296			297			298			299			300			301			302			303			304			305			306			307			308			309			310			311			312			313			314			315			316			317			
 0.000		427.8153		430.7716		430.6474		432.3012		433.7824		435.7414		438.1774		438.2453		440.1748		442.3743		444.4490		444.9045		447.4312		448.5535		450.2095		453.0113		455.4349		460.7523		462.6494		462.3749		466.0178		467.6960		469.3995		474.4110		478.4758		481.0103		485.1085		489.4426		493.0646		498.2656		503.4831		507.0092		516.2488		519.0799		525.1738		530.5410		539.4807		543.3238		553.7708		564.1220		574.7727		585.6773		598.7789		612.9190		629.0020		644.8509		665.3840		685.1663		708.2149		735.3987		763.2493		792.2223		818.0870		837.7580		842.9121		827.5134		789.9559		725.6992		644.1168		598.1012		572.8277		555.6181		543.7300		532.8870		523.2309		518.3538		511.2028		504.9802		500.8548		496.1234		492.3295		488.2060		484.4871		483.2627		480.4084		478.2952		477.4103		475.8353		471.2666		472.9451		470.3543		467.0816		466.7986		466.3361		466.3009		463.7081		463.2000		462.1761		461.1752		
 0.010		427.5027		429.9890		430.6211		432.0704		433.5065		435.2516		437.8358		437.8966		440.0409		441.9634		443.8850		444.8596		446.8801		448.2773		450.1567		452.7005		455.0979		460.3572		462.3296		462.0490		465.6311		467.7373		469.4519		474.0690		478.0659		480.8581		484.6753		489.2405		492.7209		497.7068		502.9335		506.5790		515.5602		518.4479		524.6148		530.2410		538.7661		543.1832		553.3397		563.4968		573.9977		584.9396		597.9276		611.9245		627.8692		643.6526		663.9738		683.6861		706.3901		733.3370		760.6134		789.4700		814.8760		834.5448		839.8268		825.1447		788.6903		726.7658		647.1224		601.5368		575.7458		557.9021		545.3633		534.0750		524.0403		519.0178		511.7119		505.3523		501.1276		496.3413		492.5351		488.3449		484.5615		483.2923		480.4958		478.3697		477.4180		475.9048		471.3274		472.8776		470.2860		467.0913		466.7674		466.3097		466.2257		463.7094		463.1652		462.1462		461.1618		
 0.020		427.1902		429.2064		430.5947		431.8396		433.2307		434.7619		437.4941		437.5478		439.9069		441.5526		443.3210		444.8147		446.3291		448.0010		450.1040		452.3896		454.7609		459.9620		462.0097		461.7231		465.2443		467.7786		469.5044		473.7269		477.6560		480.7060		484.2420		489.0384		492.3772		497.1481		502.3839		506.1489		514.8717		517.8160		524.0558		529.9410		538.0515		543.0425		552.9085		562.8716		573.2227		584.2018		597.0762		610.9300		626.7363		642.4543		662.5636		682.2058		704.5653		731.2752		757.9774		786.7177		811.6650		831.3316		836.7415		822.7760		787.4247		727.8325		650.1280		604.9724		578.6639		560.1862		546.9967		535.2630		524.8498		519.6817		512.2210		505.7245		501.4004		496.5591		492.7408		488.4839		484.6360		483.3220		480.5831		478.4442		477.4257		475.9742		471.3882		472.8101		470.2177		467.1011		466.7361		466.2833		466.1506		463.7107		463.1305		462.1163		461.1484		
 0.030		426.8153		428.4271		430.4310		431.6394		432.9195		434.3136		437.1152		437.2234		439.5309		441.2118		442.8300		444.7301		445.8317		447.8054		449.9073		452.0896		454.3576		459.5689		461.6423		461.4269		464.9890		467.7586		469.6020		473.3484		477.2471		480.5386		483.8027		488.8304		492.0273		496.5893		501.8371		505.7187		514.1870		517.1821		523.4968		529.6409		537.3369		542.9019		552.4773		562.2463		572.4476		583.4641		596.2248		609.9355		625.6035		641.2560		661.1534		680.7255		702.7405		729.2135		755.3415		783.9654		808.4539		828.1183		833.6562		820.4073		786.1592		728.8991		653.1336		608.4079		581.5820		562.4702		548.6300		536.4510		525.6593		520.3456		512.7300		506.0966		501.6732		496.7769		492.9464		488.6228		484.7104		483.3516		480.6704		478.5187		477.4334		476.0437		471.4490		472.7426		470.1495		467.1109		466.7049		466.2569		466.0755		463.7121		463.0958		462.0864		461.1350		
 0.040		426.3368		427.6502		430.0541		431.4625		432.5803		433.8903		436.6825		436.9510		439.0252		441.0121		442.5024		444.5785		445.3675		447.6832		449.6034		451.7972		453.8977		459.1814		461.1543		461.2701		464.8677		467.6700		469.7643		472.9070		476.8489		480.1668		483.3464		488.5957		491.6544		496.0436		501.3099		505.3318		513.5368		516.4673		522.9779		529.2273		536.6574		542.7582		552.0819		561.6645		571.6585		582.7824		595.3734		608.9409		624.4706		640.0577		659.7432		679.2452		700.9157		727.1517		752.7055		781.2131		805.2429		824.9051		830.5709		818.0386		784.8936		729.9657		656.1391		611.8435		584.5001		564.7543		550.2633		537.6390		526.4688		521.0095		513.2391		506.4687		501.9460		496.9948		493.1521		488.7618		484.7848		483.3813		480.7578		478.5933		477.4410		476.1132		471.5099		472.6750		470.0812		467.1206		466.6737		466.2305		466.0003		463.7134		463.0611		462.0565		461.1216		
 0.050		425.8657		426.8733		429.6771		431.2856		432.2410		433.4670		436.2497		436.6787		438.5195		440.8124		442.1748		444.4268		444.9034		447.5609		449.2995		451.5049		453.4378		458.7939		460.6663		461.1134		464.7465		467.5815		469.9266		472.4657		476.4508		479.7950		482.8901		488.3610		491.2815		495.5006		500.7828		504.9575		512.8865		515.7526		522.4625		528.7983		536.0335		542.6071		551.7482		561.2952		570.8424		582.1866		594.6161		607.9890		623.3659		638.7695		658.3426		677.7298		699.0909		725.0427		750.0696		778.4608		802.0319		821.6918		827.4856		815.6699		783.6280		731.0323		659.1447		615.2790		587.4182		567.0384		551.8967		538.8270		527.2782		521.6735		513.7481		506.8409		502.2188		497.2126		493.3578		488.9007		484.8592		483.4109		480.8451		478.6678		477.4487		476.1827		471.5707		472.6075		470.0129		467.1304		466.6424		466.2041		465.9252		463.7147		463.0263		462.0266		461.1082		
 0.060		425.8806		426.8836		429.6458		431.2803		432.2975		433.4582		436.1643		436.6655		438.4903		440.7648		442.1819		444.4313		444.8646		447.6028		449.3104		451.4902		453.3623		458.6893		460.4958		461.0766		464.7250		467.5561		469.9884		472.2499		476.2015		479.5293		482.5408		488.1597		490.9425		494.9728		500.2556		504.5833		512.2362		515.0379		521.9472		528.3693		535.4097		542.4561		551.4145		560.9258		570.0263		581.5908		593.8799		607.0631		622.2827		637.4722		656.9684		676.1786		697.3067		722.7938		747.4737		775.6657		798.8208		818.4786		824.4003		813.3012		782.3624		732.0990		662.1503		618.7146		590.3363		569.3224		553.5300		540.0150		528.0877		522.3374		514.2572		507.2130		502.4916		497.4305		493.5634		489.0397		484.9337		483.4406		480.9325		478.7423		477.4564		476.2521		471.6315		472.5400		469.9447		467.1402		466.6112		466.1776		465.8500		463.7161		462.9916		461.9967		461.0948		
 0.070		425.8954		426.9059		429.6346		431.2930		432.3980		433.4954		436.1174		436.6811		438.5141		440.7341		442.2222		444.4512		444.8678		447.6609		449.3665		451.5304		453.3922		458.6817		460.4582		461.1003		464.7634		467.5755		469.9628		472.2692		476.1670		479.4696		482.4967		488.1112		490.8781		494.9426		500.1508		504.4676		512.0013		514.7405		521.6260		528.0338		534.8760		542.3036		551.0809		560.5564		569.2102		580.9950		593.1438		606.1372		621.1996		636.1749		655.5941		674.6273		695.5274		720.5449		744.9261		772.8596		795.6396		815.2503		821.4302		810.9770		781.0968		733.1656		665.1559		622.1502		593.2544		571.6065		555.1634		541.2029		528.8972		523.0013		514.7663		507.5852		502.7644		497.6483		493.7691		489.1786		485.0081		483.4703		481.0198		478.8168		477.4641		476.3216		471.6923		472.4725		469.8764		467.1500		466.5800		466.1512		465.7749		463.7174		462.9569		461.9668		461.0814		
 0.080		425.9103		426.9283		429.6234		431.3057		432.4984		433.5325		436.0705		436.6967		438.5378		440.7033		442.2624		444.4711		444.8711		447.7191		449.4225		451.5707		453.4222		458.6741		460.4206		461.1240		464.8018		467.5950		469.9372		472.2885		476.1324		479.4100		482.4526		488.0626		490.8137		494.9125		500.0660		504.3875		511.8705		514.6362		521.4879		527.8451		534.6650		542.1307		550.8290		560.2444		568.6440		580.4610		592.4465		605.2113		620.1164		634.8776		654.2198		673.0761		693.7481		718.2961		742.3786		770.0534		792.4758		811.9688		818.5412		808.7708		779.9815		734.2322		668.1615		625.5857		596.1725		573.8905		556.7967		542.3909		529.7067		523.6653		515.2753		507.9573		503.0373		497.8662		493.9747		489.3176		485.0825		483.4999		481.1071		478.8913		477.4718		476.3911		471.7531		472.4049		469.8081		467.1597		466.5488		466.1248		465.6998		463.7187		462.9221		461.9369		461.0680		
 0.090		425.9252		426.9506		429.6122		431.3184		432.5989		433.5697		436.0237		436.7123		438.5616		440.6726		442.3027		444.4910		444.8743		447.7772		449.4786		451.6110		453.4522		458.6665		460.3830		461.1478		464.8402		467.6145		469.9116		472.3078		476.0978		479.3504		482.4084		488.0141		490.7493		494.8824		499.9812		504.3073		511.7398		514.5319		521.3498		527.6565		534.4539		541.9578		550.5852		559.9497		568.2786		580.0373		592.0146		604.5597		619.3135		633.7947		652.8455		671.5249		691.9688		716.0472		739.8311		767.2473		789.3119		808.6874		815.6521		806.5645		778.9685		735.0978		671.3377		628.9795		599.0772		576.1746		558.4300		543.5789		530.5161		524.3292		515.7844		508.3294		503.3101		498.0840		494.1804		489.4565		485.1569		483.5296		481.1945		478.9658		477.4794		476.4606		471.8139		472.3374		469.7399		467.1695		466.5175		466.0984		465.6246		463.7201		462.8874		461.9071		461.0546		
 0.100		425.9401		426.9730		429.6011		431.3311		432.6993		433.6069		435.9768		436.7279		438.5854		440.6418		442.3430		444.5109		444.8776		447.8354		449.5346		451.6513		453.4821		458.6589		460.3454		461.1715		464.8786		467.6340		469.8860		472.3271		476.0632		479.2908		482.3643		487.9655		490.6849		494.8523		499.8963		504.2271		511.6091		514.4276		521.2117		527.4678		534.2428		541.7849		550.3414		559.6549		567.9133		579.6136		591.5827		603.9596		618.7148		633.2038		652.1402		670.4258		690.3894		713.7983		737.2835		764.4411		786.1480		805.4059		812.7631		804.3583		777.9555		735.5235		674.5999		632.2571		601.8367		578.3704		560.0289		544.7669		531.3256		524.9931		516.2935		508.7016		503.5829		498.3019		494.3861		489.5955		485.2314		483.5592		481.2818		479.0403		477.4871		476.5301		471.8748		472.2699		469.6716		467.1793		466.4863		466.0720		465.5495		463.7214		462.8527		461.8772		461.0412		
 0.110		425.9550		426.9953		429.5899		431.3438		432.7998		433.6441		435.9300		436.7434		438.6091		440.6111		442.3832		444.5307		444.8808		447.8935		449.5907		451.6915		453.5121		458.6513		460.3078		461.1952		464.9170		467.6534		469.8604		472.3464		476.0287		479.2312		482.3202		487.9170		490.6205		494.8221		499.8115		504.1470		511.4783		514.3234		521.0736		527.2791		534.0317		541.6119		550.0976		559.3602		567.5480		579.1899		591.1508		603.3595		618.1162		632.6130		651.4464		669.5878		689.4891		712.4549		735.1189		761.6350		782.9842		802.1245		809.8740		802.1521		776.9425		735.9493		677.8622		635.5347		604.5963		580.4734		561.5449		545.8020		532.0787		525.6547		516.8025		509.0727		503.8557		498.5239		494.5917		489.7344		485.3058		483.5889		481.3691		479.1149		477.4948		476.5995		471.9356		472.2024		469.6033		467.1890		466.4551		466.0456		465.4744		463.7227		462.8180		461.8473		461.0278		
 0.120		425.9698		427.0177		429.5787		431.3565		432.9002		433.6813		435.8831		436.7590		438.6329		440.5804		442.4235		444.5506		444.8840		447.9516		449.6467		451.7318		453.5420		458.6437		460.2702		461.2190		464.9554		467.6729		469.8348		472.3657		475.9941		479.1716		482.2761		487.8684		490.5561		494.7920		499.7267		504.0668		511.3476		514.2191		520.9355		527.0904		533.8206		541.4390		549.8538		559.0654		567.1826		578.7662		590.7190		602.7594		617.5176		632.0221		650.7527		668.7499		688.5887		711.3875		733.9302		759.8992		779.8845		798.8430		806.9850		799.9459		775.9296		736.3751		681.1244		638.8122		607.3558		582.5764		563.0610		546.8297		532.7956		526.3157		517.3313		509.3670		504.1285		498.7625		494.7829		489.8734		485.3802		483.6185		481.4341		479.1894		477.5177		476.6690		471.9965		472.1349		469.5351		467.1988		466.4437		466.0192		465.3992		463.7241		462.7832		461.8255		460.9932		
 0.130		425.9847		427.0400		429.5675		431.3692		433.0006		433.7185		435.8363		436.7746		438.6567		440.5496		442.4637		444.5705		444.8873		448.0098		449.7028		451.7721		453.5720		458.6360		460.2326		461.2427		464.9938		467.6924		469.8092		472.3850		475.9595		479.1120		482.2320		487.8199		490.4917		494.7619		499.6418		503.9866		511.2168		514.1148		520.7974		526.9017		533.6095		541.2661		549.6100		558.7707		566.8173		578.3426		590.2871		602.1593		616.9190		631.4312		650.0590		667.9120		687.6884		710.3201		732.7416		758.5880		778.5611		796.1426		804.0959		797.7397		774.9166		736.8009		684.3867		642.0898		610.1153		584.6794		564.5770		547.8574		533.5125		526.9767		517.8915		509.6612		504.4258		499.0010		494.9737		490.0317		485.4600		483.6704		481.4980		479.2740		477.5525		476.7163		472.0599		472.0803		469.4670		467.2049		466.4536		465.9985		465.3389		463.7223		462.7523		461.8131		460.9492		
 0.140		425.9996		427.0624		429.5564		431.3819		433.1011		433.7556		435.7894		436.7902		438.6804		440.5189		442.5040		444.5904		444.8905		448.0679		449.7588		451.8123		453.6020		458.6284		460.1950		461.2664		465.0322		467.7118		469.7836		472.4043		475.9250		479.0523		482.1879		487.7713		490.4273		494.7318		499.5570		503.9065		511.0861		514.0105		520.6593		526.7130		533.3984		541.0932		549.3662		558.4760		566.4520		577.9189		589.8552		601.5592		616.3203		630.8404		649.3653		667.0740		686.7881		709.2527		731.5529		757.2768		777.2378		794.8377		802.0158		795.5334		773.9036		737.2267		687.6489		645.3674		612.8748		586.7824		566.0930		548.8850		534.2294		527.6377		518.4517		509.9555		504.7269		499.2396		495.1645		490.1942		485.5429		483.7378		481.5619		479.3670		477.5874		476.7443		472.1232		472.0542		469.3991		467.1959		466.4636		465.9882		465.3044		463.7043		462.7335		461.8007		460.9052		
 0.150		426.0145		427.0847		429.5452		431.3946		433.2015		433.7928		435.7426		436.8058		438.7042		440.4881		442.5442		444.6103		444.8937		448.1261		449.8148		451.8526		453.6319		458.6208		460.1574		461.2902		465.0706		467.7313		469.7580		472.4236		475.8904		478.9927		482.1438		487.7228		490.3629		494.7016		499.4722		503.8263		510.9553		513.9062		520.5212		526.5244		533.1873		540.9203		549.1224		558.1812		566.0866		577.4952		589.4233		600.9591		615.7217		630.2495		648.6716		666.2361		685.8878		708.1853		730.3642		755.9657		775.9144		793.5328		800.8778		794.2023		772.8906		737.6525		690.9112		648.6449		615.6343		588.8854		567.6090		549.9127		534.9463		528.2987		519.0119		510.2497		505.0281		499.4781		495.3553		490.3568		485.6257		483.8053		481.6258		479.4601		477.6222		476.7723		472.1865		472.0281		469.3312		467.1870		466.4735		465.9780		465.2699		463.6863		462.7148		461.7883		460.8611		
 0.160		426.0294		427.1075		429.5340		431.4074		433.3020		433.8300		435.6957		436.8240		438.7405		440.4723		442.5845		444.6402		444.9084		448.1842		449.8792		451.8927		453.6637		458.6117		460.1198		461.3100		465.1090		467.7508		469.7324		472.4429		475.8558		478.9331		482.0996		487.6742		490.2985		494.6715		499.3873		503.7461		510.8246		513.8020		520.3832		526.3357		532.9763		540.7474		548.8786		557.8865		565.7213		577.0715		588.9914		600.3590		615.1231		629.6587		647.9778		665.3982		684.9874		707.1179		729.1755		754.6545		774.5910		792.2278		799.7399		793.5753		772.5120		738.0783		694.1734		651.9225		618.3938		590.9884		569.1250		550.9403		535.6632		528.9597		519.5721		510.5440		505.3293		499.7167		495.5461		490.5193		485.7085		483.8727		481.6897		479.5532		477.6571		476.8003		472.2499		472.0020		469.2634		467.1780		466.4835		465.9677		465.2353		463.6684		462.6961		461.7759		460.8171		
 0.170		426.0610		427.1346		429.5270		431.4260		433.3757		433.8686		435.7077		436.8434		438.7828		440.4736		442.6088		444.6851		444.9352		448.2408		449.9521		451.9325		453.7000		458.5999		460.0789		461.3246		465.1367		467.7702		469.7082		472.4603		475.8251		478.8735		482.0555		487.6257		490.2340		494.6160		499.3025		503.6627		510.6936		513.6977		520.2451		526.1470		532.7652		540.5745		548.6348		557.5917		565.3559		576.6478		588.5595		599.7589		614.5245		629.0678		647.2841		664.5603		684.0871		706.0506		727.9868		753.3433		773.2677		790.9229		798.6019		792.9482		772.5593		738.7061		697.4357		655.2001		621.1533		593.0914		570.6410		551.9680		536.3801		529.6207		520.1323		510.8382		505.6305		499.9552		495.7369		490.6818		485.7914		483.9402		481.7535		479.6463		477.6919		476.8283		472.3132		471.9759		469.1955		467.1690		466.4935		465.9575		465.2008		463.6504		462.6774		461.7635		460.7731		
 0.180		426.1016		427.1616		429.5205		431.4459		433.4357		433.9082		435.7396		436.8628		438.8252		440.4749		442.6056		444.7300		444.9619		448.2969		450.0250		451.9723		453.7362		458.5881		460.0254		461.3391		465.1645		467.7359		469.7032		472.4595		475.7955		478.8092		482.0141		487.5699		490.1685		494.5250		499.2160		503.5689		510.5576		513.5885		520.1070		525.9611		532.5762		540.3985		548.3843		557.2960		564.9906		576.2241		588.1276		599.1588		613.9258		628.4769		646.5904		663.7223		683.1868		704.9832		726.7982		752.0322		771.9443		789.6180		797.4639		792.3211		772.6065		739.4916		699.6615		658.4777		623.9129		595.1943		572.1570		552.9957		537.0970		530.2817		520.6925		511.1325		505.9316		500.1938		495.9277		490.8444		485.8742		484.0076		481.8174		479.7394		477.7267		476.8562		472.3766		471.9499		469.1276		467.1601		466.5034		465.9472		465.1663		463.6324		462.6586		461.7511		460.7291		
 0.190		426.1421		427.1887		429.5140		431.4657		433.4957		433.9478		435.7715		436.8822		438.8675		440.4761		442.6023		444.7749		444.9887		448.3530		450.0978		452.0121		453.7724		458.5763		459.9718		461.3536		465.1922		467.6902		469.6981		472.4587		475.7659		478.7425		481.9757		487.5066		490.1010		494.4339		499.1233		503.4750		510.4217		513.4792		519.9520		525.7791		532.4075		540.2195		548.1135		556.9922		564.6154		575.7911		587.7205		598.5637		613.3272		627.8861		645.8967		662.8844		682.2865		703.9158		725.6095		750.7210		770.6209		788.3130		796.3259		791.6940		772.6538		740.2771		701.1416		660.8118		626.6724		597.2973		573.6730		554.0233		537.8140		530.9427		521.2528		511.4267		506.2328		500.4323		496.1185		491.0069		485.9571		484.0751		481.8813		479.8324		477.7616		476.8842		472.4399		471.9238		469.0597		467.1511		466.5134		465.9370		465.1318		463.6145		462.6399		461.7387		460.6850		
 0.200		426.1827		427.2158		429.5075		431.4856		433.5557		433.9875		435.8034		436.9017		438.9099		440.4774		442.5991		444.8198		445.0155		448.4092		450.1707		452.0519		453.8086		458.5645		459.9183		461.3682		465.2199		467.6446		469.6931		472.4578		475.7362		478.6758		481.9373		487.4432		490.0336		494.3428		499.0305		503.3812		510.2857		513.3698		519.7803		525.5971		532.2388		540.0405		547.8428		556.6884		564.2337		575.3470		587.3313		598.0040		612.7286		627.2868		645.2030		662.0465		681.3861		702.8484		724.4208		749.4098		769.2975		787.0081		795.1880		791.0669		772.7011		741.0626		702.6217		662.6071		628.7459		599.4003		575.1891		555.0510		538.5309		531.6037		521.8130		511.7210		506.5340		500.6709		496.3094		491.1695		486.0399		484.1425		481.9452		479.9255		477.7964		476.9122		472.5032		471.8977		468.9918		467.1422		466.5234		465.9267		465.0973		463.5965		462.6212		461.7263		460.6410		
