Data from https://doi.org/10.1038/s41467-019-09730-9
Upon cooling
Temperature(K)	Heat capacity(J/kg/K)

362.97	8415.63
362.97	10909.22
362.96	9456.17
362.96	8684.61
362.95	7188.57
362.94	6250.76
362.94	4868.88
362.93	3992.73
362.92	1612.59
362.92	30.52
362.91	88.36
362.9	104.92
362.89	157.71
362.89	185.47
362.88	202.56
362.87	198.97
362.86	200.59
362.85	214.28
362.85	239.93
362.84	285.51
362.83	368.88
362.82	461.53
362.81	556.38
362.81	597.06
362.8	623.14
362.79	644.22
362.78	674.53
362.77	703.39
362.76	724.65
362.75	741.92
362.74	760.57
362.73	781.29
362.72	802.45
362.71	821.06
362.7	844.06
362.69	858.63
362.68	880.74
362.67	905.86
362.66	928.52
362.65	940.99
362.64	956.08
362.63	974.02
362.62	996.55
362.61	1016.51
362.6	1027.25
362.59	1039.8
362.58	1050.8
362.56	1066.55
362.55	1080.33
362.54	1094.82
362.53	1103.03
362.52	1113.41
362.51	1127.61
362.5	1140.15
362.49	1160.9
362.47	1174.92
362.46	1185.93
362.45	1201.99
362.44	1213.53
362.43	1225.67
362.42	1236.56
362.4	1243.59
362.39	1258.9
362.38	1269.28
362.37	1277.5
362.36	1287.99
362.35	1294.47
362.33	1306.71
362.32	1323.52
362.31	1331.24
362.3	1344.67
362.28	1356.27
362.27	1368.84
362.26	1378.44
362.24	1391.1
362.23	1396.73
362.22	1405.05
362.21	1412.44
362.19	1423.58
362.18	1431.27
362.17	1439.19
362.16	1450.8
362.14	1460.63
362.13	1469.56
362.12	1481.76
362.1	1492.08
362.09	1501.24
362.08	1506.4
362.06	1513.88
362.05	1521.64
362.04	1529.26
362.03	1536.63
362.01	1539.89
362	1546.98
361.99	1557.16
361.97	1568.78
361.96	1580.99
361.95	1591.56
361.93	1601.89
361.92	1610.13
361.9	1614.89
361.89	1621.18
361.88	1629.98
361.87	1630.68
361.85	1637.35
361.84	1645.42
361.82	1651.02
361.81	1660.93
361.8	1669.62
361.78	1678.6
361.77	1687.2
361.75	1695.34
361.74	1702.74
361.73	1714.97
361.71	1722.67
361.7	1728.52
361.69	1733
361.67	1741.26
361.66	1747.34
361.64	1752.64
361.63	1757.28
361.62	1759.84
361.6	1767.15
361.59	1775.05
361.57	1783.2
361.56	1791.91
361.54	1799.56
361.53	1805.58
361.52	1809.33
361.5	1815.2
361.49	1820.74
361.47	1826.24
361.46	1830.9
361.44	1837.22
361.43	1844.35
361.42	1852.02
361.4	1860.31
361.39	1866.46
361.37	1871.1
361.36	1873.71
361.34	1879.02
361.33	1884.25
361.32	1890.41
361.3	1894.33
361.29	1901.71
361.27	1907.49
361.26	1914.08
361.24	1919.56
361.23	1927.47
361.21	1935.93
361.2	1941.13
361.18	1946.63
361.17	1954.12
361.15	1959.45
361.14	1961.8
361.13	1967.72
361.11	1972.84
361.1	1979.44
361.08	1981.62
361.07	1987.3
361.05	1991.07
361.04	1993.35
361.02	1997.82
361.01	2002.43
360.99	2006.5
360.98	2009.27
360.96	2011.12
360.95	2019.29
360.93	2025.83
360.92	2032.62
360.9	2040.14
360.89	2044.57
360.87	2049.24
360.86	2051.67
360.84	2054.9
360.83	2061.49
360.81	2064.86
360.8	2068.53
360.78	2073.63
360.77	2079.74
360.75	2086.16
360.74	2091.89
360.72	2095.45
360.71	2099.62
360.69	2101.05
360.68	2102.58
360.66	2106.06
360.65	2108.3
360.63	2109.89
360.62	2114.15
360.6	2118.44
360.59	2122.72
360.57	2128.14
360.56	2131.73
360.54	2136.21
360.52	2140.81
360.51	2144.38
360.49	2149.31
360.48	2153.28
360.46	2156.34
360.45	2160.72
360.43	2164.33
360.42	2167.27
360.4	2172.54
360.39	2176.76
360.37	2180.99
360.36	2186.39
360.34	2188.75
360.33	2190.32
360.31	2195.9
360.29	2199.88
360.28	2203.93
360.27	2206.33
360.25	2206.67
360.23	2208.52
360.22	2210.07
360.2	2211.31
360.19	2215.63
360.17	2217.78
360.16	2220.81
360.14	2225.44
360.13	2228.65
360.11	2230.54
360.09	2234.26
360.08	2237
360.06	2240.05
360.05	2244.93
360.03	2246.98
360.02	2247.94
360	2251.2
359.99	2256.33
359.97	2259.27
359.95	2261.52
359.94	2267.85
359.92	2271.64
359.91	2273.88
359.89	2276.63
359.88	2282.38
359.86	2285.37
359.85	2287.8
359.83	2289.76
359.81	2293.54
359.8	2294.33
359.78	2293.6
359.77	2297.21
359.75	2300.52
359.74	2300.22
359.72	2303.66
359.7	2306.06
359.69	2306.05
359.67	2308.52
359.66	2312.12
359.64	2315.77
359.63	2318.25
359.61	2319.82
359.6	2323.61
359.58	2327.65
359.56	2330.55
359.55	2332.43
359.53	2336.54
359.52	2339.14
359.5	2343.09
359.49	2347.73
359.47	2348.38
359.45	2350.61
359.44	2352.09
359.42	2353.54
359.4	2356.9
359.39	2358.87
359.37	2358.47
359.36	2359.89
359.34	2359.2
359.33	2361.2
359.31	2363.57
359.29	2365.03
359.28	2365.2
359.26	2366.31
359.25	2366.89
359.23	2372.31
359.22	2377.56
359.2	2382.69
359.18	2386.65
359.17	2386.92
359.15	2388.65
359.14	2390.36
359.12	2395.51
359.1	2395.99
359.09	2396.27
359.07	2395.72
359.06	2396.9
359.04	2399.54
359.02	2401.21
359.01	2402.6
358.99	2404.38
358.98	2405.46
358.96	2405.67
358.94	2408.88
358.93	2411.24
358.91	2413.98
358.9	2413.1
358.88	2413.3
358.86	2416.41
358.85	2417.42
358.83	2420.17
358.82	2423.41
358.8	2425.41
358.79	2426.39
358.77	2426.79
358.75	2427.92
358.74	2430.39
358.72	2431.49
358.7	2433.33
358.69	2436.81
358.67	2440.24
358.66	2444
358.64	2446.02
358.62	2446.34
358.61	2445.71
358.59	2445.83
358.58	2444.35
358.56	2446.07
358.54	2447.86
358.53	2449.14
358.51	2450.09
358.5	2453.11
358.48	2457.55
358.46	2460.42
358.45	2462.57
358.43	2461.7
358.42	2461.73
358.4	2462.92
358.38	2465.71
358.37	2466.49
358.35	2466.96
358.34	2468.5
358.32	2472.74
358.3	2476.66
358.29	2478.2
358.27	2480.97
358.25	2482.21
358.24	2480.95
358.22	2479.22
358.21	2478.96
358.19	2478.11
358.17	2478.56
358.16	2480.18
358.14	2483.81
358.13	2486.36
358.11	2488.91
358.09	2491.07
358.08	2492.49
358.06	2493.01
358.04	2493.68
358.03	2493.15
358.01	2492.98
358	2494.14
357.98	2495.68
357.96	2496.44
357.95	2496.87
357.93	2498.28
357.92	2501.63
357.9	2503.46
357.88	2505.14
357.87	2506.76
357.85	2506.7
357.83	2508.37
357.82	2509.93
357.8	2510.73
357.78	2510.97
357.77	2511.12
357.75	2511.23
357.74	2512.36
357.72	2513.6
357.7	2514.56
357.69	2514.63
357.67	2514.23
357.66	2514.87
357.64	2517.1
357.62	2518.49
357.61	2520.28
357.59	2522.42
357.57	2524.49
357.56	2525.93
357.54	2526.17
357.52	2527.03
357.51	2527.34
357.49	2527.49
357.47	2527.63
357.46	2528.55
357.44	2530.07
357.43	2531.42
357.41	2532.17
357.39	2532.69
357.38	2532.61
357.36	2532.54
357.35	2532.76
357.33	2533.32
357.31	2533.26
357.3	2533.17
357.28	2533.64
357.26	2535.06
357.25	2536.99
357.23	2538.77
357.22	2539.84
357.2	2540.76
357.18	2541.32
357.17	2542.03
357.15	2544.1
357.13	2546.03
357.12	2546.8
357.1	2546.94
357.08	2546.54
357.07	2546.76
357.05	2547.17
357.04	2547.32
357.02	2547.86
357	2548.21
356.99	2548.43
356.97	2549.06
356.95	2550.73
356.94	2552.41
356.92	2553.56
356.91	2554.38
356.89	2555.2
356.87	2555.8
356.86	2556.37
356.84	2557.38
356.82	2557.75
356.81	2557.85
356.79	2557.74
356.77	2557.94
356.76	2558.31
356.74	2558.3
356.73	2558.25
356.71	2558.28
356.69	2558.53
356.68	2559.04
356.66	2559.61
356.65	2560.26
356.63	2561.09
356.61	2561.63
356.59	2562.29
356.58	2563.12
356.56	2563.61
356.55	2564.3
356.53	2564.81
356.51	2565.26
356.5	2565.9
356.48	2566.17
356.46	2566.39
356.45	2567
356.43	2567.49
356.41	2568.25
356.4	2569.26
356.38	2569.74
356.36	2570.11
356.35	2570.4
356.33	2570.31
356.31	2570.37
356.3	2570.54
356.28	2570.71
356.27	2570.96
356.25	2571.34
356.24	2571.96
356.22	2573.15
356.2	2574.25
356.19	2575.03
356.17	2575.6
356.15	2575.7
356.13	2575.86
356.12	2576.23
356.1	2576.4
356.09	2576.59
356.07	2576.65
356.05	2576.65
356.04	2576.65
356.02	2576.76
356	2576.93
355.99	2577.11
355.97	2577.3
355.96	2577.61
355.94	2577.84
355.92	2578.43
355.91	2578.95
355.89	2579.24
355.87	2579.39
355.86	2579.53
355.84	2579.91
355.82	2580.41
355.81	2580.94
355.79	2581.46
355.77	2581.92
355.76	2582.04
355.74	2582.08
355.72	2582.16
355.71	2582.24
355.69	2582.12
355.68	2582.03
355.66	2582.01
355.64	2582.19
355.63	2582.68
355.61	2583.48
355.59	2584.28
355.58	2584.92
355.56	2585.31
355.54	2585.87
355.53	2586.21
355.51	2586.28
355.49	2586.19
355.48	2586.17
355.46	2586.07
355.44	2586.11
355.43	2586.24
355.41	2586.31
355.4	2586.41
355.38	2586.55
355.36	2586.81
355.35	2587.27
355.33	2587.72
355.31	2587.93
355.3	2588.17
355.28	2588.42
355.26	2588.54
355.25	2588.61
355.23	2588.7
355.21	2588.65
355.2	2588.57
355.18	2588.45
355.17	2588.35
355.15	2588.33
355.13	2588.53
355.12	2588.88
355.1	2589.32
355.08	2589.6
355.07	2589.98
355.05	2590.45
355.03	2590.71
355.02	2590.88
355	2591.04
354.98	2591.17
354.97	2591.27
354.95	2591.24
354.93	2591.23
354.92	2591.15
354.9	2591.02
354.89	2590.89
354.87	2590.75
354.85	2590.69
354.84	2590.76
354.82	2590.95
354.8	2591.57
354.79	2591.97
354.77	2592.31
354.75	2592.49
354.74	2592.72
354.72	2592.74
354.7	2592.73
354.69	2592.64
354.67	2592.56
354.66	2592.5
354.64	2592.39
354.62	2592.31
354.61	2592.35
354.59	2592.23
354.57	2592.12
354.55	2592.1
354.54	2592.03
354.52	2592.05
354.51	2592.08
354.49	2592.17
354.47	2592.45
354.46	2592.77
354.44	2592.89
354.42	2592.92
354.41	2592.92
354.39	2592.85
354.37	2592.77
354.36	2592.67
354.34	2592.55
354.32	2592.26
354.31	2592.17
354.29	2592.21
354.28	2592.42
354.26	2592.47
354.24	2592.56
354.23	2592.54
354.21	2592.49
354.19	2592.41
354.18	2592.35
354.16	2592.29
354.14	2592.27
354.13	2592.36
354.11	2592.47
354.09	2592.54
354.08	2592.52
354.06	2592.5
354.04	2592.52
354.03	2592.59
354.01	2592.6
353.99	2592.55
353.98	2592.48
353.96	2592.56
353.94	2592.56
353.93	2592.48
353.91	2592.45
353.9	2592.35
353.88	2592.28
353.86	2592.25
353.85	2592.21
353.83	2592.3
353.81	2592.44
353.8	2592.56
353.78	2592.6
353.76	2592.65
353.75	2592.69
353.73	2592.65
353.71	2592.61
353.7	2592.56
353.68	2592.55
353.66	2592.51
353.65	2592.46
353.63	2592.4
353.61	2592.36
353.6	2592.26
353.58	2592.16
353.56	2592.01
353.55	2591.88
353.53	2591.83
353.52	2591.79
353.5	2591.77
353.48	2591.75
353.47	2591.72
353.45	2591.71
353.43	2591.7
353.42	2591.66
353.4	2591.61
353.38	2591.55
353.37	2591.47
353.35	2591.4
353.33	2591.34
353.32	2591.27
353.3	2591.22
353.28	2591.17
353.27	2591.14
353.25	2591.15
353.23	2591.14
353.22	2591.23
353.2	2591.37
353.18	2591.4
353.17	2591.37
353.15	2591.36
353.13	2591.34
353.12	2591.35
353.1	2591.34
353.09	2591.33
353.07	2591.3
353.05	2591.27
353.03	2591.23
353.02	2591.19
353	2591.12
352.99	2591.06
352.97	2591
352.95	2590.96
352.94	2590.92
352.92	2590.89
352.9	2590.88
352.89	2590.94
352.87	2590.92
352.85	2590.87
352.84	2590.84
352.82	2590.8
352.8	2590.77
352.79	2590.77
352.77	2590.76
352.75	2590.74
352.74	2590.69
352.72	2590.66
352.7	2590.65
352.69	2590.64
352.67	2590.58
352.66	2590.54
352.64	2590.48
352.62	2590.46
352.6	2590.47
352.59	2590.48
352.57	2590.46
352.56	2590.43
352.54	2590.39
352.52	2590.36
352.51	2590.32
352.49	2590.28
352.47	2590.22
352.46	2590.15
352.44	2590.09
352.42	2590.05
352.41	2590.03
352.39	2590
352.37	2589.98
352.36	2589.95
352.34	2589.94
352.32	2589.93
352.31	2589.92
352.29	2589.9
352.27	2589.84
352.26	2589.77
352.24	2589.71
352.22	2589.65
352.21	2589.6
352.19	2589.55
352.18	2589.52
352.16	2589.48
352.14	2589.47
352.13	2589.45
352.11	2589.45
352.09	2589.47
352.08	2589.49
352.06	2589.47
352.04	2589.46
352.03	2589.46
352.01	2589.46
351.99	2589.44
351.98	2589.41
351.96	2589.37
351.94	2589.33
351.93	2589.3
351.91	2589.27
351.89	2589.26
351.88	2589.25
351.86	2589.23
351.84	2589.22
351.83	2589.21
351.81	2589.22
351.79	2589.23
351.78	2589.22
351.76	2589.2
351.74	2589.17
351.73	2589.16
351.71	2589.13
351.69	2589.11
351.68	2589.07
351.66	2589.01
351.64	2588.94
351.63	2588.86
351.61	2588.77
351.6	2588.68
351.58	2588.58
351.56	2588.49
351.55	2588.41
351.53	2588.34
351.51	2588.29
351.5	2588.25
351.48	2588.22
351.46	2588.23
351.45	2588.25
351.43	2588.32
351.41	2588.36
351.4	2588.34
351.38	2588.33
351.36	2588.33
351.35	2588.36
351.33	2588.36
351.31	2588.36
351.3	2588.33
351.28	2588.28
351.26	2588.23
351.25	2588.17
351.23	2588.09
351.21	2587.94
351.2	2587.76
351.18	2587.68
351.16	2587.62
351.15	2587.58
351.13	2587.55
351.12	2587.52
351.1	2587.46
351.08	2587.42
351.06	2587.39
351.05	2587.35
351.03	2587.3
351.02	2587.24
351	2587.21
350.98	2587.18
350.97	2587.18
350.95	2587.18
350.93	2587.17
350.92	2587.14
350.9	2587.12
350.88	2587.08
350.87	2587.03
350.85	2586.98
350.83	2586.93
350.82	2586.89
350.8	2586.86
350.78	2586.85
350.77	2586.84
350.75	2586.82
350.73	2586.81
350.72	2586.8
350.7	2586.79
350.68	2586.76
350.67	2586.75
350.65	2586.72
350.63	2586.69
350.62	2586.65
350.6	2586.61
350.58	2586.57
350.57	2586.51
350.55	2586.46
350.53	2586.41
350.52	2586.37
350.5	2586.33
350.48	2586.31
350.47	2586.31
350.45	2586.29
350.44	2586.25
350.42	2586.21
350.4	2586.15
350.39	2586.08
350.37	2586.02
350.35	2585.91
350.34	2585.82
350.32	2585.76
350.3	2585.71
350.29	2585.67
350.27	2585.64
350.25	2585.6
350.24	2585.57
350.22	2585.54
350.2	2585.53
350.19	2585.5
350.17	2585.47
350.15	2585.42
350.14	2585.38
350.12	2585.33
350.1	2585.29
350.09	2585.25
350.07	2585.23
350.05	2585.22
350.04	2585.22
350.02	2585.21
350	2585.19
349.99	2585.15
349.97	2585.1
349.95	2585.04
349.94	2584.97
349.92	2584.88
349.9	2584.79
349.89	2584.73
349.87	2584.66
349.85	2584.61
349.84	2584.55
349.82	2584.48
349.81	2584.4
349.79	2584.33
349.77	2584.3
349.75	2584.26
349.74	2584.23
349.72	2584.2
349.7	2584.19
349.69	2584.15
349.67	2584.12
349.66	2584.1
349.64	2584.05
349.62	2584
349.61	2583.96
349.59	2583.93
349.57	2583.88
349.56	2583.85
349.54	2583.83
349.52	2583.93
349.51	2583.89
349.49	2583.82
349.47	2583.76
349.46	2583.7
349.44	2583.65
349.42	2583.64
349.41	2583.61
349.39	2583.56
349.37	2583.53
349.36	2583.51
349.34	2583.48
349.32	2583.44
349.31	2583.38
349.29	2583.32
349.27	2583.26
349.26	2583.18
349.24	2583.11
349.22	2583.05
349.21	2582.97
349.19	2582.91
349.17	2582.87
349.16	2582.81
349.14	2582.78
349.13	2582.75
349.11	2582.73
349.09	2582.72
349.07	2582.68
349.06	2582.65
349.04	2582.63
349.03	2582.6
349.01	2582.58
348.99	2582.57
348.98	2582.55
348.96	2582.5
348.94	2582.45
348.92	2582.36
348.91	2582.28
348.89	2582.15
348.88	2582.04
348.86	2581.95
348.84	2581.89
348.83	2581.82
348.81	2581.77
348.79	2581.74
348.78	2581.7
348.76	2581.66
348.74	2581.61
348.73	2581.54
348.71	2581.47
348.69	2581.38
348.68	2581.31
348.66	2581.24
348.64	2581.17
348.63	2581.09
348.61	2581.01
348.59	2580.94
348.58	2580.88
348.56	2580.85
348.54	2580.82
348.53	2580.79
348.51	2580.76
348.49	2580.73
348.48	2580.69
348.46	2580.67
348.44	2580.63
348.43	2580.55
348.41	2580.44
348.39	2580.3
348.38	2580.04
348.36	2579.85
348.34	2579.72
348.33	2579.61
348.31	2579.52
348.3	2579.46
348.28	2579.41
348.26	2579.37
348.24	2579.32
348.23	2579.3
348.21	2579.26
348.19	2579.22
348.18	2579.18
348.16	2579.11
348.15	2579.04
348.13	2578.97
348.11	2578.93
348.1	2578.87
348.08	2578.79
348.06	2578.7
348.05	2578.62
348.03	2578.53
348.01	2578.46
348	2578.39
347.98	2578.32
347.96	2578.27
347.95	2578.22
347.93	2578.18
347.91	2578.15
347.9	2578.09
347.88	2578.01
347.86	2577.94
347.85	2577.86
347.83	2577.78
347.81	2577.69
347.8	2577.6
347.78	2577.5
347.76	2577.41
347.75	2577.32
347.73	2577.25
347.71	2577.18
347.7	2577.11
347.68	2577.07
347.66	2577.01
347.65	2576.96
347.63	2576.9
347.61	2576.85
347.6	2576.8
347.58	2576.76
347.56	2576.7
347.55	2576.62
347.53	2576.55
347.52	2576.47
347.5	2576.4
347.48	2576.31
347.46	2576.23
347.45	2576.15
347.43	2576.07
347.42	2576.02
347.4	2575.98
347.38	2575.94
347.37	2575.91
347.35	2575.86
347.33	2575.8
347.32	2575.75
347.3	2575.69
347.28	2575.61
347.27	2575.52
347.25	2575.44
347.23	2575.35
347.22	2575.28
347.2	2575.19
347.18	2575.11
347.17	2575.03
347.15	2574.95
347.13	2574.88
347.12	2574.78
347.1	2574.67
347.08	2574.56
347.07	2574.45
347.05	2574.36
347.03	2574.3
347.02	2574.23
347	2574.17
346.98	2574.14
346.97	2574.07
346.95	2574.01
346.93	2573.94
346.92	2573.87
346.9	2573.79
346.88	2573.71
346.87	2573.65
346.85	2573.6
346.83	2573.57
346.82	2573.56
346.8	2573.55
346.78	2573.5
346.77	2573.45
346.75	2573.36
346.73	2573.29
346.72	2573.2
346.7	2573.11
346.68	2573.05
346.67	2572.97
346.65	2572.92
346.63	2572.88
346.62	2572.83
346.6	2572.78
346.58	2572.73
346.57	2572.65
346.55	2572.59
346.53	2572.5
346.52	2572.39
346.5	2572.28
346.48	2572.14
346.47	2572.02
346.45	2571.93
346.44	2571.88
346.42	2571.86
346.4	2571.83
346.39	2571.84
346.37	2571.88
346.35	2571.96
346.34	2571.98
346.32	2572
346.3	2571.97
346.28	2571.9
346.27	2571.81
346.25	2571.62
346.24	2571.45
346.22	2571.2
346.2	2571
346.19	2570.76
346.17	2570.63
346.15	2570.52
346.14	2570.43
346.12	2570.36
346.1	2570.29
346.09	2570.26
346.07	2570.23
346.05	2570.2
346.04	2570.16
346.02	2570.1
346	2570.04
345.99	2569.99
345.97	2569.94
345.95	2569.9
345.94	2569.83
345.92	2569.79
345.9	2569.74
345.89	2569.74
345.87	2569.72
345.85	2569.65
345.84	2569.56
345.82	2569.44
345.8	2569.32
345.79	2569.15
345.77	2569.01
345.76	2568.9
345.74	2568.82
345.72	2568.74
345.7	2568.67
345.69	2568.62
345.67	2568.58
345.65	2568.53
345.64	2568.48
345.62	2568.4
345.6	2568.32
345.59	2568.24
345.57	2568.15
345.56	2568.05
345.54	2567.96
345.52	2567.87
345.51	2567.82
345.49	2567.75
345.47	2567.67
345.46	2567.58
345.44	2567.51
345.42	2567.44
345.41	2567.38
345.39	2567.31
345.37	2567.24
345.36	2567.18
345.34	2567.12
345.32	2567.08
345.31	2567.03
345.29	2566.99
345.27	2566.94
345.26	2566.89
345.24	2566.84
345.22	2566.78
345.21	2566.71
345.19	2566.65
345.17	2566.56
345.16	2566.48
345.14	2566.38
345.12	2566.29
345.11	2566.24
345.09	2566.17
345.07	2566.1
345.06	2566.04
345.04	2565.97
345.02	2565.9
345.01	2565.85
344.99	2565.78
344.97	2565.71
344.96	2565.61
344.94	2565.51
344.92	2565.44
344.91	2565.35
344.89	2565.28
344.87	2565.22
344.86	2565.16
344.84	2565.11
344.82	2565.04
344.81	2564.96
344.79	2564.9
344.77	2564.84
344.76	2564.78
344.74	2564.71
344.73	2564.64
344.71	2564.54
344.69	2564.45
344.67	2564.36
344.66	2564.2
344.64	2564
344.62	2563.79
344.61	2563.67
344.59	2563.56
344.58	2563.47
344.56	2563.39
344.54	2563.32
344.53	2563.25
344.51	2563.18
344.49	2563.12
344.48	2563.09
344.46	2563.05
344.44	2563
344.43	2562.96
344.41	2562.92
344.39	2562.86
344.37	2562.81
344.36	2562.73
344.34	2562.62
344.33	2562.5
344.31	2562.38
344.29	2562.29
344.28	2562.22
344.26	2562.18
344.24	2562.13
344.23	2562.07
344.21	2562.04
344.19	2562.03
344.18	2562
344.16	2561.96
344.14	2561.92
344.13	2561.85
344.11	2561.76
344.09	2561.69
344.08	2561.61
344.06	2561.52
344.04	2561.41
344.03	2561.3
344.01	2561.19
343.99	2561.1
343.98	2561.02
343.96	2560.96
343.94	2560.92
343.93	2560.85
343.91	2560.77
343.9	2560.71
343.88	2560.67
343.86	2560.62
343.84	2560.56
343.83	2560.49
343.81	2560.4
343.79	2560.3
343.78	2560.21
343.76	2560.14
343.74	2560.04
343.73	2559.95
343.71	2559.87
343.69	2559.81
343.68	2559.75
343.66	2559.71
343.64	2559.67
343.63	2559.63
343.61	2559.56
343.59	2559.48
343.58	2559.41
343.56	2559.33
343.54	2559.23
343.53	2559.14
343.51	2559.05
343.49	2558.95
343.48	2558.86
343.46	2558.81
343.44	2558.74
343.43	2558.69
343.41	2558.63
343.4	2558.56
343.38	2558.48
343.36	2558.39
343.34	2558.3
343.33	2558.21
343.31	2558.13
343.29	2558.07
343.28	2558.13
343.26	2558.1
343.25	2558.09
343.23	2558.06
343.21	2558.03
343.19	2557.95
343.18	2557.87
343.16	2557.75
343.15	2557.52
343.13	2557.33
343.11	2557.2
343.1	2557.11
343.08	2557.01
343.06	2556.91
343.05	2556.82
343.03	2556.75
343.01	2556.71
343	2556.66
342.98	2556.61
342.96	2556.57
342.95	2556.53
342.93	2556.51
342.91	2556.5
342.9	2556.46
342.88	2556.38
342.86	2556.28
342.85	2556.16
342.83	2556.06
342.81	2555.96
342.8	2555.84
342.78	2555.75
342.76	2555.68
342.75	2555.67
342.73	2555.63
342.71	2555.54
342.7	2555.46
342.68	2555.35
342.66	2555.24
342.65	2555.14
342.63	2555.04
342.61	2554.94
342.6	2554.87
342.58	2554.84
342.56	2554.87
342.55	2554.83
342.53	2554.78
342.52	2554.71
342.5	2554.63
342.48	2554.56
342.47	2554.5
342.45	2554.43
342.43	2554.37
342.41	2554.3
342.4	2554.22
342.38	2554.16
342.36	2554.09
342.35	2554.02
342.33	2553.89
342.32	2553.78
342.3	2553.67
342.28	2553.57
342.26	2553.47
342.25	2553.4
342.23	2553.33
342.22	2553.23
342.2	2553.15
342.18	2553.08
342.16	2553.05
342.15	2553
342.13	2552.95
342.12	2552.89
342.1	2552.81
342.08	2552.72
342.07	2552.64
342.05	2552.57
342.03	2552.47
342.02	2552.38
342	2552.32
341.98	2552.25
341.97	2552.19
341.95	2552.16
341.93	2552.11
341.92	2552.07
341.9	2552.03
341.88	2552
341.87	2551.98
341.85	2551.94
341.83	2551.91
341.82	2551.86
341.8	2551.78
341.78	2551.69
341.77	2551.6
341.75	2551.5
341.73	2551.36
341.72	2551.23
341.7	2551.14
341.68	2551.07
341.67	2551.03
341.65	2551.06
341.63	2551.01
341.62	2550.94
341.6	2550.87
341.58	2550.8
341.57	2550.7
341.55	2550.59
